file name:  S2128_09_1_2_MPa_PXF440_220809_531.mat	date/time  02.09.22 17.29
sensor type:  s2128_09_1_2_mpa_pxf440_220809 
force time integral[N*s]:      1575.600
pressure time integral [kPa*s]:     1512.000
total time [secs]:  10.950	time per frame [secs]:  0.01000	scanning rate [Hz]:   100


time[secs]    	force[N]   	x[mm]     	y[mm] 	

     0.01000	  138.500	 55.22	145.00	
     0.02000	  139.000	 55.11	145.00	
     0.03000	  139.000	 55.11	145.00	
     0.04000	  138.500	 55.22	145.00	
     0.05000	  138.500	 55.22	145.00	
     0.06000	  138.500	 55.11	145.00	
     0.07000	  138.500	 55.11	145.00	
     0.08000	  139.000	 55.11	145.00	
     0.09000	  139.000	 55.11	145.00	
     0.10000	  139.000	 55.11	145.00	
     0.11000	  138.500	 55.11	145.00	
     0.12000	  138.500	 55.22	145.00	
     0.13000	  138.500	 55.22	145.00	
     0.14000	  139.000	 55.11	145.00	
     0.15000	  139.000	 55.11	145.00	
     0.16000	  139.000	 55.11	145.00	
     0.17000	  139.000	 55.11	145.00	
     0.18000	  138.500	 55.22	145.00	
     0.19000	  138.500	 55.22	145.00	
     0.20000	  138.000	 55.22	145.00	
     0.21000	  139.000	 55.11	145.00	
     0.22000	  138.000	 55.22	145.00	
     0.23000	  139.000	 55.11	145.00	
     0.24000	  138.500	 55.22	145.00	
     0.25000	  138.500	 55.22	145.00	
     0.26000	  139.000	 55.11	145.00	
     0.27000	  138.500	 55.22	145.00	
     0.28000	  139.000	 55.11	145.00	
     0.29000	  139.000	 55.11	145.00	
     0.30000	  139.000	 55.11	145.00	
     0.31000	  139.000	 55.11	145.00	
     0.32000	  138.500	 55.11	145.00	
     0.33000	  139.000	 55.11	145.00	
     0.34000	  139.000	 55.11	145.00	
     0.35000	  139.000	 55.11	145.00	
     0.36000	  139.000	 55.11	145.00	
     0.37000	  138.500	 55.22	145.00	
     0.38000	  139.000	 55.11	145.00	
     0.39000	  138.500	 55.11	145.00	
     0.40000	  139.000	 55.11	145.00	
     0.41000	  138.500	 55.22	145.00	
     0.42000	  139.000	 55.11	145.00	
     0.43000	  138.500	 55.22	145.00	
     0.44000	  139.000	 55.11	145.00	
     0.45000	  138.000	 55.22	145.00	
     0.46000	  139.000	 55.11	145.00	
     0.47000	  139.000	 55.11	145.00	
     0.48000	  138.500	 55.11	145.00	
     0.49000	  138.500	 55.22	145.00	
     0.50000	  138.500	 55.22	145.00	
     0.51000	  139.000	 55.11	145.00	
     0.52000	  138.500	 55.22	145.00	
     0.53000	  139.000	 55.11	145.00	
     0.54000	  138.500	 55.22	145.00	
     0.55000	  139.000	 55.11	145.00	
     0.56000	  139.000	 55.11	145.00	
     0.57000	  138.500	 55.22	145.00	
     0.58000	  139.500	 55.18	145.00	
     0.59000	  138.500	 55.22	145.00	
     0.60000	  139.000	 55.11	145.00	
     0.61000	  138.500	 55.22	145.00	
     0.62000	  139.000	 55.11	145.00	
     0.63000	  139.000	 55.11	145.00	
     0.64000	  139.000	 55.11	145.00	
     0.65000	  139.000	 55.11	145.00	
     0.66000	  138.500	 55.22	145.00	
     0.67000	  139.000	 55.11	145.00	
     0.68000	  138.000	 55.22	145.00	
     0.69000	  139.000	 55.11	145.00	
     0.70000	  139.000	 55.11	145.00	
     0.71000	  139.000	 55.11	145.00	
     0.72000	  139.000	 55.11	145.00	
     0.73000	  139.000	 55.11	145.00	
     0.74000	  139.000	 55.11	145.00	
     0.75000	  139.500	 55.18	145.00	
     0.76000	  139.000	 55.11	145.00	
     0.77000	  139.000	 55.11	145.00	
     0.78000	  139.000	 55.11	145.00	
     0.79000	  139.000	 55.11	145.00	
     0.80000	  138.000	 54.86	145.00	
     0.81000	  139.000	 55.11	145.00	
     0.82000	  139.000	 55.11	145.00	
     0.83000	  139.500	 54.93	145.00	
     0.84000	  139.000	 55.11	145.00	
     0.85000	  139.000	 55.11	145.00	
     0.86000	  139.000	 55.11	145.00	
     0.87000	  139.000	 55.11	145.00	
     0.88000	  139.000	 55.11	145.00	
     0.89000	  139.000	 55.11	145.00	
     0.90000	  138.500	 55.11	145.00	
     0.91000	  139.000	 55.11	145.00	
     0.92000	  138.500	 55.22	145.00	
     0.93000	  138.500	 55.22	145.00	
     0.94000	  139.000	 55.11	145.00	
     0.95000	  138.500	 54.96	145.00	
     0.96000	  138.500	 55.22	145.00	
     0.97000	  138.500	 55.22	145.00	
     0.98000	  139.000	 55.11	145.00	
     0.99000	  138.500	 55.22	145.00	
     1.00000	  139.000	 55.11	145.00	
     1.01000	  138.500	 55.22	145.00	
     1.02000	  139.000	 55.11	145.00	
     1.03000	  139.000	 55.11	145.00	
     1.04000	  139.000	 55.11	145.00	
     1.05000	  139.000	 55.11	145.00	
     1.06000	  138.500	 55.22	145.00	
     1.07000	  138.500	 55.22	145.00	
     1.08000	  138.500	 55.22	145.00	
     1.09000	  139.000	 55.11	145.00	
     1.10000	  138.500	 55.11	145.00	
     1.11000	  138.500	 55.22	145.00	
     1.12000	  138.500	 55.22	145.00	
     1.13000	  138.500	 54.96	145.00	
     1.14000	  138.500	 55.11	145.00	
     1.15000	  139.000	 55.11	145.00	
     1.16000	  139.000	 55.11	145.00	
     1.17000	  138.500	 55.22	145.00	
     1.18000	  139.000	 55.11	145.00	
     1.19000	  138.500	 55.11	145.00	
     1.20000	  138.500	 55.22	145.00	
     1.21000	  139.000	 55.11	145.00	
     1.22000	  138.500	 55.11	145.00	
     1.23000	  138.500	 55.22	145.00	
     1.24000	  139.000	 55.11	145.00	
     1.25000	  138.500	 55.22	145.00	
     1.26000	  139.000	 55.11	145.00	
     1.27000	  139.000	 55.11	145.00	
     1.28000	  139.000	 55.11	145.00	
     1.29000	  138.500	 55.11	145.00	
     1.30000	  138.500	 54.96	145.00	
     1.31000	  139.000	 55.11	145.00	
     1.32000	  139.000	 55.11	145.00	
     1.33000	  138.500	 55.22	145.00	
     1.34000	  139.000	 55.11	145.00	
     1.35000	  138.500	 55.22	145.00	
     1.36000	  139.000	 55.11	145.00	
     1.37000	  139.000	 55.11	145.00	
     1.38000	  138.500	 55.22	145.00	
     1.39000	  138.500	 55.22	145.00	
     1.40000	  139.000	 55.11	145.00	
     1.41000	  138.500	 55.22	145.00	
     1.42000	  138.500	 55.22	145.00	
     1.43000	  139.000	 55.11	145.00	
     1.44000	  138.000	 55.22	145.00	
     1.45000	  139.000	 55.11	145.00	
     1.46000	  139.000	 55.11	145.00	
     1.47000	  138.000	 55.22	145.00	
     1.48000	  139.000	 55.11	145.00	
     1.49000	  139.000	 55.11	145.00	
     1.50000	  138.500	 55.22	145.00	
     1.51000	  139.000	 55.11	145.00	
     1.52000	  139.000	 55.11	145.00	
     1.53000	  138.500	 55.22	145.00	
     1.54000	  139.000	 55.11	145.00	
     1.55000	  138.500	 55.11	145.00	
     1.56000	  138.500	 54.96	145.00	
     1.57000	  139.000	 55.11	145.00	
     1.58000	  139.000	 55.11	145.00	
     1.59000	  139.000	 55.11	145.00	
     1.60000	  139.000	 55.11	145.00	
     1.61000	  139.000	 55.11	145.00	
     1.62000	  138.500	 55.22	145.00	
     1.63000	  138.500	 55.22	145.00	
     1.64000	  138.500	 55.22	145.00	
     1.65000	  138.500	 55.22	145.00	
     1.66000	  139.000	 55.11	145.00	
     1.67000	  139.000	 55.11	145.00	
     1.68000	  138.500	 55.22	145.00	
     1.69000	  138.500	 55.22	145.00	
     1.70000	  139.000	 55.11	145.00	
     1.71000	  139.000	 55.11	145.00	
     1.72000	  139.000	 55.11	145.00	
     1.73000	  139.000	 55.11	145.00	
     1.74000	  139.000	 55.11	145.00	
     1.75000	  138.500	 55.11	145.00	
     1.76000	  139.000	 55.11	145.00	
     1.77000	  139.000	 55.11	145.00	
     1.78000	  139.000	 55.11	145.00	
     1.79000	  138.500	 55.22	145.00	
     1.80000	  139.000	 55.11	145.00	
     1.81000	  139.000	 55.11	145.00	
     1.82000	  138.500	 55.22	145.00	
     1.83000	  138.500	 55.22	145.00	
     1.84000	  139.000	 55.11	145.00	
     1.85000	  138.500	 55.22	145.00	
     1.86000	  138.500	 55.22	145.00	
     1.87000	  139.000	 55.11	145.00	
     1.88000	  138.500	 55.22	145.00	
     1.89000	  139.000	 55.11	145.00	
     1.90000	  138.000	 55.22	145.00	
     1.91000	  138.500	 55.22	145.00	
     1.92000	  139.000	 55.11	145.00	
     1.93000	  139.000	 55.11	145.00	
     1.94000	  138.500	 55.00	145.00	
     1.95000	  139.000	 55.11	145.00	
     1.96000	  139.500	 55.18	145.00	
     1.97000	  139.000	 55.11	145.00	
     1.98000	  138.500	 55.22	145.00	
     1.99000	  139.000	 55.11	145.00	
     2.00000	  139.000	 55.11	145.00	
     2.01000	  139.000	 55.11	145.00	
     2.02000	  138.500	 54.96	145.00	
     2.03000	  138.500	 55.22	145.00	
     2.04000	  138.500	 55.22	145.00	
     2.05000	  139.000	 55.11	145.00	
     2.06000	  139.000	 55.11	145.00	
     2.07000	  138.500	 55.11	145.00	
     2.08000	  139.000	 55.11	145.00	
     2.09000	  139.000	 55.11	145.00	
     2.10000	  139.000	 55.11	145.00	
     2.11000	  138.500	 55.22	145.00	
     2.12000	  139.000	 55.11	145.00	
     2.13000	  139.000	 55.11	145.00	
     2.14000	  138.500	 55.11	145.00	
     2.15000	  138.500	 55.22	145.00	
     2.16000	  139.000	 55.11	145.00	
     2.17000	  138.500	 55.22	145.00	
     2.18000	  139.000	 55.11	145.00	
     2.19000	  138.500	 55.22	145.00	
     2.20000	  138.500	 55.22	145.00	
     2.21000	  138.500	 55.11	145.00	
     2.22000	  139.000	 55.11	145.00	
     2.23000	  138.500	 55.22	145.00	
     2.24000	  139.000	 55.11	145.00	
     2.25000	  139.000	 55.11	145.00	
     2.26000	  139.000	 55.11	145.00	
     2.27000	  138.500	 55.22	145.00	
     2.28000	  139.000	 55.11	145.00	
     2.29000	  138.500	 55.22	145.00	
     2.30000	  138.500	 55.22	145.00	
     2.31000	  138.500	 55.22	145.00	
     2.32000	  139.000	 55.11	145.00	
     2.33000	  139.000	 55.11	145.00	
     2.34000	  138.500	 55.11	145.00	
     2.35000	  138.500	 55.11	145.00	
     2.36000	  139.000	 55.11	145.00	
     2.37000	  138.500	 55.22	145.00	
     2.38000	  139.000	 55.11	145.00	
     2.39000	  139.000	 55.11	145.00	
     2.40000	  139.000	 55.11	145.00	
     2.41000	  139.000	 55.11	145.00	
     2.42000	  139.000	 55.11	145.00	
     2.43000	  138.500	 55.22	145.00	
     2.44000	  138.500	 55.11	145.00	
     2.45000	  138.500	 55.22	145.00	
     2.46000	  139.000	 55.11	145.00	
     2.47000	  139.000	 55.11	145.00	
     2.48000	  139.000	 55.11	145.00	
     2.49000	  139.000	 55.11	145.00	
     2.50000	  138.500	 55.22	145.00	
     2.51000	  139.000	 55.11	145.00	
     2.52000	  139.000	 55.11	145.00	
     2.53000	  139.000	 55.11	145.00	
     2.54000	  138.500	 55.22	145.00	
     2.55000	  138.500	 55.22	145.00	
     2.56000	  138.500	 55.22	145.00	
     2.57000	  138.500	 55.22	145.00	
     2.58000	  138.500	 55.11	145.00	
     2.59000	  139.000	 55.11	145.00	
     2.60000	  139.000	 55.11	145.00	
     2.61000	  138.500	 55.22	145.00	
     2.62000	  139.000	 55.11	145.00	
     2.63000	  139.000	 55.11	145.00	
     2.64000	  139.000	 55.11	145.00	
     2.65000	  138.500	 55.22	145.00	
     2.66000	  139.000	 55.11	145.00	
     2.67000	  139.000	 55.11	145.00	
     2.68000	  139.000	 55.11	145.00	
     2.69000	  138.500	 55.22	145.00	
     2.70000	  138.500	 55.11	145.00	
     2.71000	  138.500	 55.11	145.00	
     2.72000	  139.000	 55.11	145.00	
     2.73000	  139.000	 55.11	145.00	
     2.74000	  138.500	 55.11	145.00	
     2.75000	  139.000	 55.11	145.00	
     2.76000	  138.500	 55.22	145.00	
     2.77000	  138.500	 55.22	145.00	
     2.78000	  138.500	 55.22	145.00	
     2.79000	  139.000	 55.11	145.00	
     2.80000	  139.000	 55.11	145.00	
     2.81000	  138.000	 55.22	145.00	
     2.82000	  139.000	 55.11	145.00	
     2.83000	  139.000	 55.11	145.00	
     2.84000	  138.500	 55.22	145.00	
     2.85000	  138.500	 55.22	145.00	
     2.86000	  138.500	 55.22	145.00	
     2.87000	  139.000	 55.11	145.00	
     2.88000	  138.000	 55.22	145.00	
     2.89000	  139.000	 55.11	145.00	
     2.90000	  138.500	 55.22	145.00	
     2.91000	  138.000	 55.22	145.00	
     2.92000	  139.000	 55.11	145.00	
     2.93000	  139.000	 55.11	145.00	
     2.94000	  139.000	 55.11	145.00	
     2.95000	  139.000	 55.11	145.00	
     2.96000	  139.000	 55.11	145.00	
     2.97000	  138.500	 55.22	145.00	
     2.98000	  138.500	 55.22	145.00	
     2.99000	  138.000	 54.96	145.00	
     3.00000	  138.500	 55.00	145.00	
     3.01000	  138.500	 55.22	145.00	
     3.02000	  139.000	 55.11	145.00	
     3.03000	  138.500	 55.22	145.00	
     3.04000	  139.000	 55.11	145.00	
     3.05000	  139.000	 55.11	145.00	
     3.06000	  138.500	 55.11	145.00	
     3.07000	  138.500	 55.22	145.00	
     3.08000	  139.000	 55.11	145.00	
     3.09000	  138.500	 55.22	145.00	
     3.10000	  139.000	 55.11	145.00	
     3.11000	  139.000	 55.11	145.00	
     3.12000	  139.500	 55.18	145.00	
     3.13000	  139.000	 55.11	145.00	
     3.14000	  139.000	 55.11	145.00	
     3.15000	  139.000	 55.11	145.00	
     3.16000	  139.000	 55.11	145.00	
     3.17000	  138.500	 54.96	145.00	
     3.18000	  139.000	 55.11	145.00	
     3.19000	  139.000	 55.11	145.00	
     3.20000	  139.000	 55.11	145.00	
     3.21000	  139.000	 55.11	145.00	
     3.22000	  139.000	 55.11	145.00	
     3.23000	  139.000	 55.11	145.00	
     3.24000	  139.000	 55.11	145.00	
     3.25000	  138.500	 55.11	145.00	
     3.26000	  139.000	 55.11	145.00	
     3.27000	  138.000	 55.11	145.00	
     3.28000	  139.000	 55.11	145.00	
     3.29000	  139.000	 55.11	145.00	
     3.30000	  139.000	 55.11	145.00	
     3.31000	  139.000	 55.11	145.00	
     3.32000	  139.000	 55.11	145.00	
     3.33000	  138.500	 55.22	145.00	
     3.34000	  139.000	 55.11	145.00	
     3.35000	  139.000	 55.11	145.00	
     3.36000	  138.500	 55.22	145.00	
     3.37000	  139.000	 55.11	145.00	
     3.38000	  138.500	 55.22	145.00	
     3.39000	  138.500	 55.11	145.00	
     3.40000	  138.500	 55.11	145.00	
     3.41000	  139.000	 55.11	145.00	
     3.42000	  139.000	 55.11	145.00	
     3.43000	  138.500	 55.11	145.00	
     3.44000	  139.000	 55.11	145.00	
     3.45000	  139.000	 55.11	145.00	
     3.46000	  138.500	 55.22	145.00	
     3.47000	  139.000	 55.11	145.00	
     3.48000	  139.000	 55.11	145.00	
     3.49000	  138.500	 55.22	145.00	
     3.50000	  138.500	 55.22	145.00	
     3.51000	  139.000	 55.11	145.00	
     3.52000	  139.000	 55.11	145.00	
     3.53000	  139.000	 55.11	145.00	
     3.54000	  138.500	 55.11	145.00	
     3.55000	  138.500	 55.11	145.00	
     3.56000	  139.000	 55.11	145.00	
     3.57000	  139.000	 55.11	145.00	
     3.58000	  138.500	 55.22	145.00	
     3.59000	  138.500	 55.22	145.00	
     3.60000	  139.000	 55.11	145.00	
     3.61000	  138.500	 55.11	145.00	
     3.62000	  139.000	 55.11	145.00	
     3.63000	  138.500	 55.22	145.00	
     3.64000	  139.000	 55.11	145.00	
     3.65000	  139.000	 55.11	145.00	
     3.66000	  139.000	 55.11	145.00	
     3.67000	  139.000	 55.11	145.00	
     3.68000	  138.500	 55.22	145.00	
     3.69000	  139.000	 55.11	145.00	
     3.70000	  139.000	 55.11	145.00	
     3.71000	  139.000	 55.11	145.00	
     3.72000	  139.000	 55.11	145.00	
     3.73000	  139.000	 55.11	145.00	
     3.74000	  138.500	 55.22	145.00	
     3.75000	  139.000	 55.11	145.00	
     3.76000	  139.000	 55.11	145.00	
     3.77000	  139.000	 55.11	145.00	
     3.78000	  139.000	 55.11	145.00	
     3.79000	  139.000	 55.11	145.00	
     3.80000	  139.000	 55.11	145.00	
     3.81000	  139.000	 55.11	145.00	
     3.82000	  139.000	 55.11	145.00	
     3.83000	  139.000	 55.11	145.00	
     3.84000	  138.500	 55.22	145.00	
     3.85000	  138.500	 55.22	145.00	
     3.86000	  139.000	 55.11	145.00	
     3.87000	  139.000	 55.11	145.00	
     3.88000	  138.500	 55.11	145.00	
     3.89000	  139.500	 55.18	145.00	
     3.90000	  139.000	 55.11	145.00	
     3.91000	  139.000	 55.11	145.00	
     3.92000	  139.000	 55.11	145.00	
     3.93000	  139.000	 55.11	145.00	
     3.94000	  139.000	 55.29	145.00	
     3.95000	  139.000	 55.11	145.00	
     3.96000	  139.000	 55.11	145.00	
     3.97000	  139.000	 55.29	145.00	
     3.98000	  139.500	 55.18	145.00	
     3.99000	  139.500	 55.18	145.00	
     4.00000	  139.500	 55.18	145.00	
     4.01000	  140.000	 55.00	145.00	
     4.02000	  139.000	 55.18	145.00	
     4.03000	  139.500	 55.18	145.00	
     4.04000	  139.500	 55.18	145.00	
     4.05000	  139.000	 55.29	145.00	
     4.06000	  140.000	 55.29	145.00	
     4.07000	  139.500	 55.18	145.00	
     4.08000	  139.500	 55.18	145.00	
     4.09000	  138.500	 55.29	145.00	
     4.10000	  140.000	 55.00	145.00	
     4.11000	  139.500	 55.18	145.00	
     4.12000	  139.500	 55.18	145.00	
     4.13000	  139.500	 55.18	145.00	
     4.14000	  139.000	 55.29	145.00	
     4.15000	  139.500	 55.18	145.00	
     4.16000	  140.000	 55.29	145.00	
     4.17000	  139.500	 55.18	145.00	
     4.18000	  140.000	 55.29	145.00	
     4.19000	  140.000	 55.29	145.00	
     4.20000	  140.000	 55.29	145.00	
     4.21000	  140.000	 55.29	145.00	
     4.22000	  140.000	 55.29	145.00	
     4.23000	  140.000	 55.46	145.00	
     4.24000	  140.000	 55.29	145.00	
     4.25000	  140.000	 55.29	145.00	
     4.26000	  140.000	 55.29	145.00	
     4.27000	  140.000	 55.29	145.00	
     4.28000	  140.000	 55.29	145.00	
     4.29000	  140.000	 55.29	145.00	
     4.30000	  139.500	 55.39	145.00	
     4.31000	  140.500	 55.36	145.00	
     4.32000	  140.000	 55.29	145.00	
     4.33000	  140.500	 55.36	145.00	
     4.34000	  140.000	 55.29	145.00	
     4.35000	  140.500	 55.36	145.00	
     4.36000	  139.500	 55.39	145.00	
     4.37000	  140.500	 55.36	145.00	
     4.38000	  140.000	 55.29	145.00	
     4.39000	  140.000	 55.46	145.00	
     4.40000	  140.000	 55.46	145.00	
     4.41000	  140.000	 55.46	145.00	
     4.42000	  141.000	 55.46	145.00	
     4.43000	  140.500	 55.57	145.00	
     4.44000	  141.000	 55.46	145.00	
     4.45000	  141.000	 55.46	145.00	
     4.46000	  141.000	 55.46	145.00	
     4.47000	  141.000	 55.46	145.00	
     4.48000	  141.000	 55.46	145.00	
     4.49000	  141.000	 55.46	145.00	
     4.50000	  141.000	 55.46	145.00	
     4.51000	  140.500	 55.57	145.00	
     4.52000	  141.000	 55.46	145.00	
     4.53000	  140.500	 55.46	145.00	
     4.54000	  141.000	 55.46	145.00	
     4.55000	  141.000	 55.46	145.00	
     4.56000	  141.000	 55.46	145.00	
     4.57000	  141.000	 55.46	145.00	
     4.58000	  141.000	 55.46	145.00	
     4.59000	  141.000	 55.46	145.00	
     4.60000	  141.000	 55.46	145.00	
     4.61000	  141.000	 55.46	145.00	
     4.62000	  140.500	 55.46	145.00	
     4.63000	  140.500	 55.46	145.00	
     4.64000	  141.000	 55.46	145.00	
     4.65000	  141.000	 55.46	145.00	
     4.66000	  141.000	 55.46	145.00	
     4.67000	  141.500	 55.57	145.00	
     4.68000	  141.500	 55.57	145.00	
     4.69000	  141.000	 55.57	145.00	
     4.70000	  141.500	 55.57	145.00	
     4.71000	  141.000	 55.46	145.00	
     4.72000	  141.500	 55.57	145.00	
     4.73000	  141.500	 55.57	145.00	
     4.74000	  141.500	 55.57	145.00	
     4.75000	  141.500	 55.57	145.00	
     4.76000	  141.000	 55.67	145.00	
     4.77000	  141.000	 55.67	145.00	
     4.78000	  141.500	 55.57	145.00	
     4.79000	  141.500	 55.57	145.00	
     4.80000	  141.500	 55.57	145.00	
     4.81000	  141.500	 55.57	145.00	
     4.82000	  141.500	 55.57	145.00	
     4.83000	  141.500	 55.57	145.00	
     4.84000	  141.500	 55.57	145.00	
     4.85000	  141.500	 55.57	145.00	
     4.86000	  141.500	 55.57	145.00	
     4.87000	  141.500	 55.57	145.00	
     4.88000	  141.500	 55.57	145.00	
     4.89000	  141.500	 55.57	145.00	
     4.90000	  141.000	 55.57	145.00	
     4.91000	  142.000	 55.67	145.00	
     4.92000	  141.000	 55.57	145.00	
     4.93000	  141.000	 55.67	145.00	
     4.94000	  141.500	 55.57	145.00	
     4.95000	  144.000	 55.38	143.75	
     4.96000	  142.000	 55.67	145.00	
     4.97000	  142.000	 55.67	145.00	
     4.98000	  141.500	 55.78	145.00	
     4.99000	  144.000	 55.38	143.75	
     5.00000	  145.500	 55.79	143.63	
     5.01000	  146.000	 55.79	143.63	
     5.02000	  146.000	 55.79	143.63	
     5.03000	  146.000	 55.79	143.63	
     5.04000	  145.500	 55.89	143.63	
     5.05000	  146.500	 55.85	143.63	
     5.06000	  146.000	 55.96	143.63	
     5.07000	  146.000	 55.86	143.63	
     5.08000	  148.500	 56.25	143.25	
     5.09000	  148.000	 56.25	143.24	
     5.10000	  148.500	 56.25	143.25	
     5.11000	  148.500	 56.25	143.25	
     5.12000	  150.500	 56.10	141.94	
     5.13000	  150.000	 55.97	141.63	
     5.14000	  150.000	 56.03	141.93	
     5.15000	  153.000	 55.88	140.26	
     5.16000	  150.500	 56.03	141.64	
     5.17000	  151.000	 56.03	141.66	
     5.18000	  155.000	 55.61	139.03	
     5.19000	  153.500	 55.68	140.11	
     5.20000	  153.500	 55.68	140.11	
     5.21000	  155.000	 55.65	138.74	
     5.22000	  155.000	 55.55	138.74	
     5.23000	  157.500	 55.13	137.25	
     5.24000	  158.000	 55.13	137.28	
     5.25000	  160.000	 55.13	136.13	
     5.26000	  158.000	 55.32	137.18	
     5.27000	  155.000	 55.61	138.42	
     5.28000	  159.000	 55.16	136.92	
     5.29000	  160.500	 55.22	136.06	
     5.30000	  162.000	 55.19	135.52	
     5.31000	  163.500	 54.97	134.54	
     5.32000	  161.500	 54.97	135.65	
     5.33000	  163.500	 54.97	134.54	
     5.34000	  163.500	 55.09	134.54	
     5.35000	  165.500	 55.33	134.43	
     5.36000	  165.500	 55.33	134.43	
     5.37000	  164.000	 55.06	134.54	
     5.38000	  165.000	 55.48	135.30	
     5.39000	  164.000	 55.00	134.27	
     5.40000	  168.500	 55.47	133.13	
     5.41000	  166.000	 55.36	134.16	
     5.42000	  167.500	 55.30	133.66	
     5.43000	  168.500	 55.59	134.20	
     5.44000	  171.500	 55.20	131.18	
     5.45000	  174.500	 55.54	132.22	
     5.46000	  175.500	 55.63	131.75	
     5.47000	  176.000	 55.57	131.19	
     5.48000	  174.500	 55.77	132.34	
     5.49000	  179.000	 56.40	132.01	
     5.50000	  180.500	 56.19	131.09	
     5.51000	  179.000	 56.17	132.01	
     5.52000	  181.000	 56.35	131.02	
     5.53000	  183.500	 56.34	129.99	
     5.54000	  184.000	 56.41	130.00	
     5.55000	  183.500	 56.34	130.01	
     5.56000	  184.500	 56.44	129.80	
     5.57000	  184.500	 56.41	129.77	
     5.58000	  182.000	 56.35	130.93	
     5.59000	  184.500	 56.73	130.53	
     5.60000	  184.500	 56.52	130.04	
     5.61000	  186.000	 56.85	129.84	
     5.62000	  181.000	 56.60	131.77	
     5.63000	  183.000	 56.58	130.71	
     5.64000	  183.000	 56.58	130.71	
     5.65000	  183.500	 56.50	130.48	
     5.66000	  185.500	 56.75	129.74	
     5.67000	  181.000	 56.60	131.77	
     5.68000	  184.000	 56.58	130.43	
     5.69000	  183.500	 56.66	130.67	
     5.70000	  183.500	 56.50	130.48	
     5.71000	  183.500	 56.66	130.67	
     5.72000	  184.000	 56.58	130.43	
     5.73000	  184.000	 56.58	130.43	
     5.74000	  184.000	 56.66	130.43	
     5.75000	  186.000	 56.40	129.03	
     5.76000	  188.500	 56.01	128.10	
     5.77000	  189.500	 56.08	127.77	
     5.78000	  192.000	 56.02	126.95	
     5.79000	  206.500	 56.55	124.30	
     5.80000	  239.500	 57.94	117.96	
     5.81000	  287.500	 59.37	111.45	
     5.82000	  369.500	 60.76	105.49	
     5.83000	  479.000	 62.30	100.75	
     5.84000	  588.000	 63.52	 97.95	
     5.85000	  521.000	 65.71	 79.95	
     5.86000	  588.500	 66.02	 80.17	
     5.87000	  632.500	 66.44	 80.31	
     5.88000	  652.000	 66.34	 79.75	
     5.89000	  646.500	 66.01	 79.04	
     5.90000	  606.000	 65.73	 78.79	
     5.91000	  549.000	 65.07	 78.15	
     5.92000	  485.000	 64.55	 77.61	
     5.93000	  415.000	 64.23	 78.06	
     5.94000	  360.500	 63.89	 77.86	
     5.95000	  317.500	 63.76	 78.06	
     5.96000	  281.000	 63.93	 79.31	
     5.97000	  261.000	 64.06	 79.69	
     5.98000	  245.500	 64.12	 80.32	
     5.99000	  233.000	 64.44	 81.14	
     6.00000	  223.000	 64.30	 82.09	
     6.01000	  217.000	 64.35	 82.88	
     6.02000	  215.000	 64.14	 82.44	
     6.03000	  212.500	 63.82	 81.92	
     6.04000	  207.000	 63.43	 81.33	
     6.05000	  202.000	 63.19	 80.67	
     6.06000	  199.000	 63.22	 80.18	
     6.07000	  198.500	 63.16	 80.29	
     6.08000	  201.500	 63.34	 81.00	
     6.09000	  200.500	 63.60	 81.73	
     6.10000	  194.000	 63.94	 82.27	
     6.11000	  183.000	 63.72	 81.89	
     6.12000	  174.000	 63.07	 82.10	
     6.13000	  163.500	 63.13	 81.39	
     6.14000	  149.500	 62.46	 80.42	
     6.15000	  135.500	 61.64	 79.46	
     6.16000	  117.000	 60.60	 81.67	
     6.17000	   95.500	 60.29	 78.72	
     6.18000	   75.000	 59.13	 80.73	
     6.19000	   51.500	 57.23	 75.29	
     6.20000	   34.500	 57.32	 73.84	
     6.21000	    8.000	 40.00	 42.50	
     6.22000	    0.000	  0.00	  0.00	
     6.23000	    0.000	  0.00	  0.00	
     6.24000	    0.000	  0.00	  0.00	
     6.25000	  111.500	 55.04	145.00	
     6.26000	  137.500	 55.36	145.00	
     6.27000	    0.000	  0.00	  0.00	
     6.28000	    0.000	  0.00	  0.00	
     6.29000	    0.000	  0.00	  0.00	
     6.30000	    0.000	  0.00	  0.00	
     6.31000	   15.500	 79.84	145.00	
     6.32000	  131.500	 55.00	145.00	
     6.33000	  134.000	 55.22	145.00	
     6.34000	  135.500	 54.89	145.00	
     6.35000	  135.500	 54.89	145.00	
     6.36000	  136.500	 55.11	145.00	
     6.37000	  136.500	 55.11	145.00	
     6.38000	  136.500	 55.11	145.00	
     6.39000	  137.000	 55.22	145.00	
     6.40000	  136.500	 55.11	145.00	
     6.41000	  137.500	 55.07	145.00	
     6.42000	  137.000	 55.22	145.00	
     6.43000	  137.000	 55.22	145.00	
     6.44000	  137.500	 55.07	145.00	
     6.45000	  137.500	 55.36	145.00	
     6.46000	  137.500	 55.07	145.00	
     6.47000	  137.000	 55.22	145.00	
     6.48000	  137.000	 54.96	145.00	
     6.49000	  137.000	 54.96	145.00	
     6.50000	  137.500	 55.11	145.00	
     6.51000	  137.000	 54.96	145.00	
     6.52000	  136.500	 55.11	145.00	
     6.53000	  136.500	 55.11	145.00	
     6.54000	  137.000	 54.96	145.00	
     6.55000	  137.000	 54.96	145.00	
     6.56000	  137.000	 54.96	145.00	
     6.57000	  137.500	 55.11	145.00	
     6.58000	  136.500	 55.11	145.00	
     6.59000	  136.500	 55.11	145.00	
     6.60000	  136.500	 55.11	145.00	
     6.61000	  136.500	 55.11	145.00	
     6.62000	  136.500	 55.11	145.00	
     6.63000	  136.500	 55.11	145.00	
     6.64000	  136.500	 55.11	145.00	
     6.65000	  136.500	 55.11	145.00	
     6.66000	  136.500	 55.11	145.00	
     6.67000	  136.500	 55.11	145.00	
     6.68000	  137.000	 54.96	145.00	
     6.69000	  136.500	 55.11	145.00	
     6.70000	  136.500	 55.11	145.00	
     6.71000	  136.000	 54.93	145.00	
     6.72000	  136.500	 55.11	145.00	
     6.73000	  136.500	 55.11	145.00	
     6.74000	  136.500	 55.11	145.00	
     6.75000	  136.500	 55.11	145.00	
     6.76000	  136.500	 55.11	145.00	
     6.77000	  136.500	 55.11	145.00	
     6.78000	  136.500	 55.11	145.00	
     6.79000	  136.500	 55.11	145.00	
     6.80000	  136.500	 55.11	145.00	
     6.81000	  136.500	 55.11	145.00	
     6.82000	  136.500	 55.11	145.00	
     6.83000	  136.500	 55.11	145.00	
     6.84000	  136.500	 55.11	145.00	
     6.85000	  136.500	 55.11	145.00	
     6.86000	  136.500	 55.11	145.00	
     6.87000	  136.500	 55.11	145.00	
     6.88000	  136.000	 54.93	145.00	
     6.89000	  136.000	 54.93	145.00	
     6.90000	  136.500	 55.11	145.00	
     6.91000	  136.000	 54.93	145.00	
     6.92000	  136.500	 55.11	145.00	
     6.93000	  136.500	 55.11	145.00	
     6.94000	  136.000	 55.29	145.00	
     6.95000	  136.500	 55.11	145.00	
     6.96000	  136.500	 55.11	145.00	
     6.97000	  136.500	 55.11	145.00	
     6.98000	  136.000	 55.07	145.00	
     6.99000	  136.500	 55.11	145.00	
     7.00000	  136.500	 55.11	145.00	
     7.01000	  136.000	 55.07	145.00	
     7.02000	  135.500	 54.89	145.00	
     7.03000	  135.500	 54.89	145.00	
     7.04000	  136.000	 55.07	145.00	
     7.05000	  136.500	 55.11	145.00	
     7.06000	  136.000	 54.93	145.00	
     7.07000	  136.000	 54.93	145.00	
     7.08000	  135.500	 54.89	145.00	
     7.09000	  136.500	 55.11	145.00	
     7.10000	  135.500	 54.89	145.00	
     7.11000	  136.500	 55.11	145.00	
     7.12000	  135.500	 54.89	145.00	
     7.13000	  135.500	 54.89	145.00	
     7.14000	  135.500	 54.89	145.00	
     7.15000	  135.500	 54.89	145.00	
     7.16000	  135.500	 54.89	145.00	
     7.17000	  135.500	 55.26	145.00	
     7.18000	  136.000	 54.93	145.00	
     7.19000	  135.500	 54.89	145.00	
     7.20000	  135.500	 54.89	145.00	
     7.21000	  135.500	 54.89	145.00	
     7.22000	  136.000	 54.93	145.00	
     7.23000	  136.500	 55.11	145.00	
     7.24000	  135.500	 54.89	145.00	
     7.25000	  136.500	 55.11	145.00	
     7.26000	  135.500	 54.89	145.00	
     7.27000	  136.500	 55.11	145.00	
     7.28000	  135.000	 55.07	145.00	
     7.29000	  135.500	 54.89	145.00	
     7.30000	  136.000	 54.93	145.00	
     7.31000	  135.500	 54.89	145.00	
     7.32000	  136.000	 55.07	145.00	
     7.33000	  135.500	 54.89	145.00	
     7.34000	  135.000	 55.07	145.00	
     7.35000	  135.000	 55.07	145.00	
     7.36000	  135.500	 54.89	145.00	
     7.37000	  135.500	 54.89	145.00	
     7.38000	  135.500	 54.89	145.00	
     7.39000	  136.000	 55.07	145.00	
     7.40000	  135.000	 55.07	145.00	
     7.41000	  135.000	 55.07	145.00	
     7.42000	  135.500	 54.89	145.00	
     7.43000	  135.000	 55.07	145.00	
     7.44000	  135.000	 55.07	145.00	
     7.45000	  135.000	 55.07	145.00	
     7.46000	  135.500	 54.89	145.00	
     7.47000	  135.000	 55.07	145.00	
     7.48000	  134.500	 54.96	145.00	
     7.49000	  135.000	 55.07	145.00	
     7.50000	  135.000	 55.07	145.00	
     7.51000	  134.500	 54.96	145.00	
     7.52000	  134.500	 54.96	145.00	
     7.53000	  134.000	 54.96	145.00	
     7.54000	  135.000	 55.07	145.00	
     7.55000	  134.500	 54.96	145.00	
     7.56000	  135.000	 55.07	145.00	
     7.57000	  134.500	 55.22	145.00	
     7.58000	  135.500	 54.89	145.00	
     7.59000	  134.500	 54.96	145.00	
     7.60000	  135.000	 55.07	145.00	
     7.61000	  134.000	 54.96	145.00	
     7.62000	  134.000	 54.96	145.00	
     7.63000	  134.500	 55.07	145.00	
     7.64000	  135.000	 54.78	145.00	
     7.65000	  135.000	 55.07	145.00	
     7.66000	  134.500	 54.96	145.00	
     7.67000	  134.000	 54.96	145.00	
     7.68000	  134.500	 54.96	145.00	
     7.69000	  134.500	 54.96	145.00	
     7.70000	  134.500	 55.07	145.00	
     7.71000	  134.500	 54.96	145.00	
     7.72000	  134.500	 54.96	145.00	
     7.73000	  134.500	 54.96	145.00	
     7.74000	  134.000	 54.96	145.00	
     7.75000	  134.000	 54.96	145.00	
     7.76000	  134.000	 55.11	145.00	
     7.77000	  134.000	 54.96	145.00	
     7.78000	  133.500	 55.11	145.00	
     7.79000	  134.000	 54.96	145.00	
     7.80000	  134.500	 55.07	145.00	
     7.81000	  134.500	 54.96	145.00	
     7.82000	  134.000	 55.22	145.00	
     7.83000	  134.000	 54.96	145.00	
     7.84000	  134.500	 54.96	145.00	
     7.85000	  133.500	 55.11	145.00	
     7.86000	  134.000	 54.96	145.00	
     7.87000	  133.000	 55.15	145.00	
     7.88000	  133.500	 55.11	145.00	
     7.89000	  133.500	 55.11	145.00	
     7.90000	  132.500	 55.23	145.00	
     7.91000	  133.000	 55.15	145.00	
     7.92000	  133.500	 55.11	145.00	
     7.93000	  132.500	 55.23	145.00	
     7.94000	  133.500	 55.11	145.00	
     7.95000	  133.000	 55.15	145.00	
     7.96000	  132.500	 55.08	145.00	
     7.97000	  132.500	 55.11	145.00	
     7.98000	  132.500	 55.23	145.00	
     7.99000	  133.500	 55.11	145.00	
     8.00000	  132.500	 55.23	145.00	
     8.01000	  132.000	 55.15	145.00	
     8.02000	  132.000	 55.08	145.00	
     8.03000	  132.500	 55.23	145.00	
     8.04000	  132.000	 55.15	145.00	
     8.05000	  131.000	 54.92	145.00	
     8.06000	  131.500	 54.96	145.00	
     8.07000	  133.000	 55.15	145.00	
     8.08000	  133.000	 55.15	145.00	
     8.09000	  133.500	 55.11	145.00	
     8.10000	  133.000	 55.15	145.00	
     8.11000	  133.500	 55.11	145.00	
     8.12000	  133.500	 55.11	145.00	
     8.13000	  134.000	 54.96	145.00	
     8.14000	  133.000	 55.15	145.00	
     8.15000	  134.000	 54.96	145.00	
     8.16000	  132.500	 55.15	145.00	
     8.17000	  133.500	 55.11	145.00	
     8.18000	  132.000	 55.19	145.00	
     8.19000	  133.500	 55.11	145.00	
     8.20000	  133.000	 55.19	145.00	
     8.21000	  132.500	 55.11	145.00	
     8.22000	  132.500	 55.23	145.00	
     8.23000	  133.500	 55.11	145.00	
     8.24000	  132.000	 55.15	145.00	
     8.25000	  132.500	 55.23	145.00	
     8.26000	  131.500	 54.96	145.00	
     8.27000	  133.500	 55.11	145.00	
     8.28000	  133.000	 55.15	145.00	
     8.29000	  132.500	 55.23	145.00	
     8.30000	  133.500	 55.11	145.00	
     8.31000	  133.500	 55.00	145.00	
     8.32000	  133.000	 55.15	145.00	
     8.33000	  133.500	 55.11	145.00	
     8.34000	  133.500	 55.11	145.00	
     8.35000	  132.500	 55.23	145.00	
     8.36000	  133.000	 55.15	145.00	
     8.37000	  132.000	 55.15	145.00	
     8.38000	  133.000	 55.15	145.00	
     8.39000	  132.500	 55.23	145.00	
     8.40000	  132.500	 54.89	145.00	
     8.41000	  133.000	 55.15	145.00	
     8.42000	  133.500	 55.11	145.00	
     8.43000	  132.500	 55.23	145.00	
     8.44000	  132.500	 55.08	145.00	
     8.45000	  133.000	 55.19	145.00	
     8.46000	  132.500	 55.23	145.00	
     8.47000	  131.000	 54.92	145.00	
     8.48000	  133.000	 55.15	145.00	
     8.49000	  133.000	 55.15	145.00	
     8.50000	  133.000	 55.19	145.00	
     8.51000	  133.000	 55.15	145.00	
     8.52000	  133.500	 55.11	145.00	
     8.53000	  133.500	 55.11	145.00	
     8.54000	  133.000	 55.15	145.00	
     8.55000	  133.000	 55.15	145.00	
     8.56000	  132.000	 55.15	145.00	
     8.57000	  133.500	 55.11	145.00	
     8.58000	  133.000	 55.15	145.00	
     8.59000	  133.000	 55.15	145.00	
     8.60000	  132.500	 55.23	145.00	
     8.61000	  132.500	 55.23	145.00	
     8.62000	  132.500	 55.23	145.00	
     8.63000	  133.000	 55.19	145.00	
     8.64000	  132.500	 55.23	145.00	
     8.65000	  133.500	 55.11	145.00	
     8.66000	  133.500	 55.11	145.00	
     8.67000	  134.000	 54.96	145.00	
     8.68000	  134.500	 54.96	145.00	
     8.69000	  134.500	 55.07	145.00	
     8.70000	  134.500	 54.96	145.00	
     8.71000	  135.000	 55.07	145.00	
     8.72000	  133.500	 55.11	145.00	
     8.73000	  135.000	 55.07	145.00	
     8.74000	  134.000	 54.96	145.00	
     8.75000	  134.000	 54.96	145.00	
     8.76000	  133.500	 55.11	145.00	
     8.77000	  134.500	 54.96	145.00	
     8.78000	  134.500	 54.96	145.00	
     8.79000	  134.500	 54.96	145.00	
     8.80000	  135.000	 55.07	145.00	
     8.81000	  134.500	 55.07	145.00	
     8.82000	  135.000	 55.07	145.00	
     8.83000	  134.500	 55.07	145.00	
     8.84000	  135.000	 55.07	145.00	
     8.85000	  135.000	 55.07	145.00	
     8.86000	  134.500	 54.96	145.00	
     8.87000	  134.500	 54.96	145.00	
     8.88000	  135.000	 55.07	145.00	
     8.89000	  135.000	 54.78	145.00	
     8.90000	  135.000	 55.07	145.00	
     8.91000	  135.000	 55.07	145.00	
     8.92000	  134.000	 54.96	145.00	
     8.93000	  134.500	 55.07	145.00	
     8.94000	  135.000	 55.07	145.00	
     8.95000	  135.000	 55.07	145.00	
     8.96000	  134.500	 55.07	145.00	
     8.97000	  134.500	 54.96	145.00	
     8.98000	  135.000	 55.07	145.00	
     8.99000	  134.500	 54.96	145.00	
     9.00000	  135.000	 55.07	145.00	
     9.01000	  134.500	 55.07	145.00	
     9.02000	  134.500	 55.07	145.00	
     9.03000	  135.000	 55.07	145.00	
     9.04000	  135.000	 55.07	145.00	
     9.05000	  134.000	 54.96	145.00	
     9.06000	  135.000	 55.07	145.00	
     9.07000	  135.000	 55.07	145.00	
     9.08000	  134.500	 55.07	145.00	
     9.09000	  135.000	 55.07	145.00	
     9.10000	  135.000	 55.07	145.00	
     9.11000	  135.000	 55.07	145.00	
     9.12000	  134.500	 54.96	145.00	
     9.13000	  134.500	 54.96	145.00	
     9.14000	  135.000	 55.07	145.00	
     9.15000	  135.000	 55.07	145.00	
     9.16000	  134.500	 54.96	145.00	
     9.17000	  134.500	 54.96	145.00	
     9.18000	  135.000	 55.07	145.00	
     9.19000	  134.500	 55.07	145.00	
     9.20000	  134.500	 54.96	145.00	
     9.21000	  135.000	 55.07	145.00	
     9.22000	  134.000	 54.96	145.00	
     9.23000	  133.500	 55.11	145.00	
     9.24000	  134.500	 55.07	145.00	
     9.25000	  133.500	 55.11	145.00	
     9.26000	  134.000	 54.96	145.00	
     9.27000	  133.500	 55.11	145.00	
     9.28000	  133.500	 55.11	145.00	
     9.29000	  134.500	 54.96	145.00	
     9.30000	  134.000	 55.22	145.00	
     9.31000	  134.000	 55.22	145.00	
     9.32000	  134.000	 55.26	145.00	
     9.33000	  134.000	 55.11	145.00	
     9.34000	  134.500	 55.07	145.00	
     9.35000	  134.000	 54.96	145.00	
     9.36000	  135.000	 55.07	145.00	
     9.37000	  134.500	 55.22	145.00	
     9.38000	  134.000	 55.11	145.00	
     9.39000	  133.500	 55.11	145.00	
     9.40000	  134.000	 54.96	145.00	
     9.41000	  134.000	 54.96	145.00	
     9.42000	  133.500	 55.11	145.00	
     9.43000	  133.500	 55.11	145.00	
     9.44000	  134.500	 55.07	145.00	
     9.45000	  134.000	 54.96	145.00	
     9.46000	  134.500	 55.07	145.00	
     9.47000	  134.000	 55.22	145.00	
     9.48000	  133.500	 55.11	145.00	
     9.49000	  134.500	 55.07	145.00	
     9.50000	  134.000	 55.22	145.00	
     9.51000	  133.500	 55.11	145.00	
     9.52000	  134.500	 55.07	145.00	
     9.53000	  134.500	 55.22	145.00	
     9.54000	  134.000	 54.96	145.00	
     9.55000	  133.000	 55.15	145.00	
     9.56000	  132.500	 55.23	145.00	
     9.57000	  133.500	 55.11	145.00	
     9.58000	  134.000	 55.22	145.00	
     9.59000	  134.000	 54.96	145.00	
     9.60000	  133.000	 55.34	145.00	
     9.61000	  134.000	 54.96	145.00	
     9.62000	  133.500	 55.11	145.00	
     9.63000	  133.500	 55.26	145.00	
     9.64000	  133.000	 55.15	145.00	
     9.65000	  133.500	 55.11	145.00	
     9.66000	  134.000	 55.22	145.00	
     9.67000	  133.500	 55.11	145.00	
     9.68000	  133.000	 55.19	145.00	
     9.69000	  133.000	 55.15	145.00	
     9.70000	  133.500	 55.11	145.00	
     9.71000	  132.500	 55.23	145.00	
     9.72000	  132.500	 55.23	145.00	
     9.73000	  132.000	 55.15	145.00	
     9.74000	  132.000	 55.15	145.00	
     9.75000	  133.000	 55.15	145.00	
     9.76000	  133.000	 55.08	145.00	
     9.77000	  133.500	 55.11	145.00	
     9.78000	  133.000	 55.15	145.00	
     9.79000	  133.000	 55.15	145.00	
     9.80000	  133.500	 55.11	145.00	
     9.81000	  133.000	 55.15	145.00	
     9.82000	  133.000	 55.15	145.00	
     9.83000	  132.000	 55.15	145.00	
     9.84000	  132.000	 55.15	145.00	
     9.85000	  132.500	 55.11	145.00	
     9.86000	  133.000	 55.19	145.00	
     9.87000	  133.000	 55.19	145.00	
     9.88000	  134.000	 54.96	145.00	
     9.89000	  133.000	 55.15	145.00	
     9.90000	  132.500	 55.23	145.00	
     9.91000	  133.000	 55.15	145.00	
     9.92000	  134.000	 55.22	145.00	
     9.93000	  133.500	 55.11	145.00	
     9.94000	  133.000	 55.15	145.00	
     9.95000	  132.500	 55.23	145.00	
     9.96000	  133.000	 55.15	145.00	
     9.97000	  133.000	 55.15	145.00	
     9.98000	  133.500	 55.11	145.00	
     9.99000	  132.500	 55.23	145.00	
    10.00000	  132.500	 55.23	145.00	
    10.01000	  132.500	 55.23	145.00	
    10.02000	  132.500	 55.23	145.00	
    10.03000	  132.500	 55.23	145.00	
    10.04000	  133.000	 55.15	145.00	
    10.05000	  133.500	 55.26	145.00	
    10.06000	  133.000	 55.15	145.00	
    10.07000	  132.500	 55.23	145.00	
    10.08000	  133.000	 55.15	145.00	
    10.09000	  133.000	 55.15	145.00	
    10.10000	  133.500	 55.11	145.00	
    10.11000	  134.000	 55.22	145.00	
    10.12000	  133.000	 55.15	145.00	
    10.13000	  132.500	 55.23	145.00	
    10.14000	  133.500	 55.26	145.00	
    10.15000	  133.000	 55.15	145.00	
    10.16000	  133.000	 55.15	145.00	
    10.17000	  132.500	 55.23	145.00	
    10.18000	  133.000	 55.15	145.00	
    10.19000	  132.500	 55.15	145.00	
    10.20000	  132.500	 55.23	145.00	
    10.21000	  133.000	 55.15	145.00	
    10.22000	  133.000	 55.15	145.00	
    10.23000	  133.500	 55.26	145.00	
    10.24000	  134.000	 55.22	145.00	
    10.25000	  133.500	 55.11	145.00	
    10.26000	  133.000	 55.15	145.00	
    10.27000	  133.500	 55.11	145.00	
    10.28000	  133.500	 55.11	145.00	
    10.29000	  134.000	 55.22	145.00	
    10.30000	  133.500	 55.26	145.00	
    10.31000	  133.500	 55.26	145.00	
    10.32000	  133.000	 55.15	145.00	
    10.33000	  133.000	 55.15	145.00	
    10.34000	  132.000	 55.19	145.00	
    10.35000	  133.000	 55.15	145.00	
    10.36000	  133.000	 55.23	145.00	
    10.37000	  133.000	 55.34	145.00	
    10.38000	  132.500	 55.23	145.00	
    10.39000	  133.000	 55.15	145.00	
    10.40000	  133.000	 55.15	145.00	
    10.41000	  132.500	 55.23	145.00	
    10.42000	  132.000	 54.89	145.00	
    10.43000	  133.000	 55.15	145.00	
    10.44000	  132.500	 54.96	145.00	
    10.45000	  132.000	 55.04	145.00	
    10.46000	  132.500	 55.23	145.00	
    10.47000	  132.500	 55.08	145.00	
    10.48000	  132.000	 54.89	145.00	
    10.49000	  132.000	 55.19	145.00	
    10.50000	  132.500	 55.23	145.00	
    10.51000	  132.500	 55.08	145.00	
    10.52000	  132.000	 55.19	145.00	
    10.53000	  132.000	 55.15	145.00	
    10.54000	  132.500	 55.23	145.00	
    10.55000	  133.000	 55.34	145.00	
    10.56000	  132.000	 55.19	145.00	
    10.57000	  132.000	 55.15	145.00	
    10.58000	  131.000	 54.92	145.00	
    10.59000	  132.500	 55.23	145.00	
    10.60000	  132.000	 55.04	145.00	
    10.61000	  131.500	 55.00	145.00	
    10.62000	  132.000	 55.04	145.00	
    10.63000	  131.000	 54.92	145.00	
    10.64000	  131.500	 54.96	145.00	
    10.65000	  132.500	 55.23	145.00	
    10.66000	  132.000	 55.19	145.00	
    10.67000	  133.000	 55.15	145.00	
    10.68000	  131.500	 55.11	145.00	
    10.69000	  132.000	 55.15	145.00	
    10.70000	  132.000	 55.19	145.00	
    10.71000	  131.500	 55.00	145.00	
    10.72000	  131.000	 54.92	145.00	
    10.73000	  132.000	 55.19	145.00	
    10.74000	  132.000	 55.19	145.00	
    10.75000	  132.000	 54.89	145.00	
    10.76000	  132.000	 55.19	145.00	
    10.77000	  131.000	 54.92	145.00	
    10.78000	  131.000	 54.92	145.00	
    10.79000	  132.000	 55.19	145.00	
    10.80000	  132.000	 55.19	145.00	
    10.81000	  133.000	 55.15	145.00	
    10.82000	  132.000	 55.19	145.00	
    10.83000	  132.500	 55.23	145.00	
    10.84000	  132.500	 55.08	145.00	
    10.85000	  131.500	 55.00	145.00	
    10.86000	  132.000	 55.19	145.00	
    10.87000	  131.500	 55.11	145.00	
    10.88000	  131.000	 54.92	145.00	
    10.89000	  131.500	 55.00	145.00	
    10.90000	  131.000	 54.92	145.00	
    10.91000	  131.000	 54.92	145.00	
    10.92000	  131.000	 54.92	145.00	
    10.93000	  131.000	 54.92	145.00	
    10.94000	  131.000	 54.92	145.00	
    10.95000	  131.000	 54.92	145.00	
