file name:  S2128_09_1_2_MPa_PXF440_220809_423.mat	date/time  03.09.22 16.05
sensor type:  s2128_09_1_2_mpa_pxf440_220809 
force time integral[N*s]:       332.135
pressure time integral [kPa*s]:      396.000
total time [secs]:  18.540	time per frame [secs]:  0.01000	scanning rate [Hz]:   100


time[secs]    	force[N]   	x[mm]     	y[mm] 	

     0.01000	    0.000	  0.00	  0.00	
     0.02000	    0.000	  0.00	  0.00	
     0.03000	    0.000	  0.00	  0.00	
     0.04000	    0.000	  0.00	  0.00	
     0.05000	    0.000	  0.00	  0.00	
     0.06000	    0.000	  0.00	  0.00	
     0.07000	    0.000	  0.00	  0.00	
     0.08000	    0.000	  0.00	  0.00	
     0.09000	    0.000	  0.00	  0.00	
     0.10000	    0.000	  0.00	  0.00	
     0.11000	    0.000	  0.00	  0.00	
     0.12000	    0.000	  0.00	  0.00	
     0.13000	    0.000	  0.00	  0.00	
     0.14000	    0.000	  0.00	  0.00	
     0.15000	    0.000	  0.00	  0.00	
     0.16000	    0.000	  0.00	  0.00	
     0.17000	    0.000	  0.00	  0.00	
     0.18000	    0.000	  0.00	  0.00	
     0.19000	    0.000	  0.00	  0.00	
     0.20000	    0.000	  0.00	  0.00	
     0.21000	    0.000	  0.00	  0.00	
     0.22000	    0.000	  0.00	  0.00	
     0.23000	    0.000	  0.00	  0.00	
     0.24000	    0.000	  0.00	  0.00	
     0.25000	    0.000	  0.00	  0.00	
     0.26000	    0.000	  0.00	  0.00	
     0.27000	    0.000	  0.00	  0.00	
     0.28000	    0.000	  0.00	  0.00	
     0.29000	    0.000	  0.00	  0.00	
     0.30000	    0.000	  0.00	  0.00	
     0.31000	    0.000	  0.00	  0.00	
     0.32000	    0.000	  0.00	  0.00	
     0.33000	    0.000	  0.00	  0.00	
     0.34000	    0.000	  0.00	  0.00	
     0.35000	    0.000	  0.00	  0.00	
     0.36000	    0.000	  0.00	  0.00	
     0.37000	    0.000	  0.00	  0.00	
     0.38000	    0.000	  0.00	  0.00	
     0.39000	    0.000	  0.00	  0.00	
     0.40000	    0.000	  0.00	  0.00	
     0.41000	    0.000	  0.00	  0.00	
     0.42000	    0.000	  0.00	  0.00	
     0.43000	    0.000	  0.00	  0.00	
     0.44000	    0.000	  0.00	  0.00	
     0.45000	    0.000	  0.00	  0.00	
     0.46000	    0.000	  0.00	  0.00	
     0.47000	    0.000	  0.00	  0.00	
     0.48000	    0.000	  0.00	  0.00	
     0.49000	    0.000	  0.00	  0.00	
     0.50000	    0.000	  0.00	  0.00	
     0.51000	    0.000	  0.00	  0.00	
     0.52000	    0.000	  0.00	  0.00	
     0.53000	    0.000	  0.00	  0.00	
     0.54000	    0.000	  0.00	  0.00	
     0.55000	    0.000	  0.00	  0.00	
     0.56000	    0.000	  0.00	  0.00	
     0.57000	    0.000	  0.00	  0.00	
     0.58000	    0.000	  0.00	  0.00	
     0.59000	    0.000	  0.00	  0.00	
     0.60000	    0.000	  0.00	  0.00	
     0.61000	    0.000	  0.00	  0.00	
     0.62000	    0.000	  0.00	  0.00	
     0.63000	    0.000	  0.00	  0.00	
     0.64000	    0.000	  0.00	  0.00	
     0.65000	    0.000	  0.00	  0.00	
     0.66000	    0.000	  0.00	  0.00	
     0.67000	    0.000	  0.00	  0.00	
     0.68000	    0.000	  0.00	  0.00	
     0.69000	    0.000	  0.00	  0.00	
     0.70000	    0.000	  0.00	  0.00	
     0.71000	    0.000	  0.00	  0.00	
     0.72000	    0.000	  0.00	  0.00	
     0.73000	    0.000	  0.00	  0.00	
     0.74000	    0.000	  0.00	  0.00	
     0.75000	    0.000	  0.00	  0.00	
     0.76000	    0.000	  0.00	  0.00	
     0.77000	    0.000	  0.00	  0.00	
     0.78000	    0.000	  0.00	  0.00	
     0.79000	    0.000	  0.00	  0.00	
     0.80000	    0.000	  0.00	  0.00	
     0.81000	    0.000	  0.00	  0.00	
     0.82000	    0.000	  0.00	  0.00	
     0.83000	    0.000	  0.00	  0.00	
     0.84000	    0.000	  0.00	  0.00	
     0.85000	    0.000	  0.00	  0.00	
     0.86000	    0.000	  0.00	  0.00	
     0.87000	    0.000	  0.00	  0.00	
     0.88000	    0.000	  0.00	  0.00	
     0.89000	    0.000	  0.00	  0.00	
     0.90000	    0.000	  0.00	  0.00	
     0.91000	    0.000	  0.00	  0.00	
     0.92000	    0.000	  0.00	  0.00	
     0.93000	    0.000	  0.00	  0.00	
     0.94000	    0.000	  0.00	  0.00	
     0.95000	    0.000	  0.00	  0.00	
     0.96000	    0.000	  0.00	  0.00	
     0.97000	    0.000	  0.00	  0.00	
     0.98000	    0.000	  0.00	  0.00	
     0.99000	    0.000	  0.00	  0.00	
     1.00000	    0.000	  0.00	  0.00	
     1.01000	    0.000	  0.00	  0.00	
     1.02000	    0.000	  0.00	  0.00	
     1.03000	    0.000	  0.00	  0.00	
     1.04000	    0.000	  0.00	  0.00	
     1.05000	    0.000	  0.00	  0.00	
     1.06000	    0.000	  0.00	  0.00	
     1.07000	    0.000	  0.00	  0.00	
     1.08000	    0.000	  0.00	  0.00	
     1.09000	    0.000	  0.00	  0.00	
     1.10000	    0.000	  0.00	  0.00	
     1.11000	    0.000	  0.00	  0.00	
     1.12000	    0.000	  0.00	  0.00	
     1.13000	    0.000	  0.00	  0.00	
     1.14000	    0.000	  0.00	  0.00	
     1.15000	    0.000	  0.00	  0.00	
     1.16000	    0.000	  0.00	  0.00	
     1.17000	    0.000	  0.00	  0.00	
     1.18000	    0.000	  0.00	  0.00	
     1.19000	    0.000	  0.00	  0.00	
     1.20000	    0.000	  0.00	  0.00	
     1.21000	    0.000	  0.00	  0.00	
     1.22000	    0.000	  0.00	  0.00	
     1.23000	    0.000	  0.00	  0.00	
     1.24000	    0.000	  0.00	  0.00	
     1.25000	    0.000	  0.00	  0.00	
     1.26000	    0.000	  0.00	  0.00	
     1.27000	    0.000	  0.00	  0.00	
     1.28000	    0.000	  0.00	  0.00	
     1.29000	    0.000	  0.00	  0.00	
     1.30000	    0.000	  0.00	  0.00	
     1.31000	    0.000	  0.00	  0.00	
     1.32000	    0.000	  0.00	  0.00	
     1.33000	    0.000	  0.00	  0.00	
     1.34000	    0.000	  0.00	  0.00	
     1.35000	    0.000	  0.00	  0.00	
     1.36000	    0.000	  0.00	  0.00	
     1.37000	    0.000	  0.00	  0.00	
     1.38000	    0.000	  0.00	  0.00	
     1.39000	    0.000	  0.00	  0.00	
     1.40000	    0.000	  0.00	  0.00	
     1.41000	    0.000	  0.00	  0.00	
     1.42000	    0.000	  0.00	  0.00	
     1.43000	    0.000	  0.00	  0.00	
     1.44000	    0.000	  0.00	  0.00	
     1.45000	    0.000	  0.00	  0.00	
     1.46000	    0.000	  0.00	  0.00	
     1.47000	    0.000	  0.00	  0.00	
     1.48000	    0.000	  0.00	  0.00	
     1.49000	    0.000	  0.00	  0.00	
     1.50000	    0.000	  0.00	  0.00	
     1.51000	    0.000	  0.00	  0.00	
     1.52000	    0.000	  0.00	  0.00	
     1.53000	    0.000	  0.00	  0.00	
     1.54000	    0.000	  0.00	  0.00	
     1.55000	    0.000	  0.00	  0.00	
     1.56000	    0.000	  0.00	  0.00	
     1.57000	    0.000	  0.00	  0.00	
     1.58000	    0.000	  0.00	  0.00	
     1.59000	    0.000	  0.00	  0.00	
     1.60000	    0.000	  0.00	  0.00	
     1.61000	    0.000	  0.00	  0.00	
     1.62000	    0.000	  0.00	  0.00	
     1.63000	    0.000	  0.00	  0.00	
     1.64000	    0.000	  0.00	  0.00	
     1.65000	    0.000	  0.00	  0.00	
     1.66000	    0.000	  0.00	  0.00	
     1.67000	    0.000	  0.00	  0.00	
     1.68000	    0.000	  0.00	  0.00	
     1.69000	    0.000	  0.00	  0.00	
     1.70000	    0.000	  0.00	  0.00	
     1.71000	    0.000	  0.00	  0.00	
     1.72000	    0.000	  0.00	  0.00	
     1.73000	    0.000	  0.00	  0.00	
     1.74000	    0.000	  0.00	  0.00	
     1.75000	    0.000	  0.00	  0.00	
     1.76000	    0.000	  0.00	  0.00	
     1.77000	    0.000	  0.00	  0.00	
     1.78000	    0.000	  0.00	  0.00	
     1.79000	    0.000	  0.00	  0.00	
     1.80000	    0.000	  0.00	  0.00	
     1.81000	    0.000	  0.00	  0.00	
     1.82000	    0.000	  0.00	  0.00	
     1.83000	    0.000	  0.00	  0.00	
     1.84000	    0.000	  0.00	  0.00	
     1.85000	    0.000	  0.00	  0.00	
     1.86000	    0.000	  0.00	  0.00	
     1.87000	    0.000	  0.00	  0.00	
     1.88000	    0.000	  0.00	  0.00	
     1.89000	    0.000	  0.00	  0.00	
     1.90000	    0.000	  0.00	  0.00	
     1.91000	    0.000	  0.00	  0.00	
     1.92000	    0.000	  0.00	  0.00	
     1.93000	    0.000	  0.00	  0.00	
     1.94000	    0.000	  0.00	  0.00	
     1.95000	    0.000	  0.00	  0.00	
     1.96000	    0.000	  0.00	  0.00	
     1.97000	    0.000	  0.00	  0.00	
     1.98000	    0.000	  0.00	  0.00	
     1.99000	    0.000	  0.00	  0.00	
     2.00000	    0.000	  0.00	  0.00	
     2.01000	    0.000	  0.00	  0.00	
     2.02000	    0.000	  0.00	  0.00	
     2.03000	    0.000	  0.00	  0.00	
     2.04000	    0.000	  0.00	  0.00	
     2.05000	    0.000	  0.00	  0.00	
     2.06000	    0.000	  0.00	  0.00	
     2.07000	    0.000	  0.00	  0.00	
     2.08000	    0.000	  0.00	  0.00	
     2.09000	    0.000	  0.00	  0.00	
     2.10000	    0.000	  0.00	  0.00	
     2.11000	    0.000	  0.00	  0.00	
     2.12000	    0.000	  0.00	  0.00	
     2.13000	    0.000	  0.00	  0.00	
     2.14000	    0.000	  0.00	  0.00	
     2.15000	    0.000	  0.00	  0.00	
     2.16000	    0.000	  0.00	  0.00	
     2.17000	    0.000	  0.00	  0.00	
     2.18000	    0.000	  0.00	  0.00	
     2.19000	    0.000	  0.00	  0.00	
     2.20000	    0.000	  0.00	  0.00	
     2.21000	    0.000	  0.00	  0.00	
     2.22000	    0.000	  0.00	  0.00	
     2.23000	    0.000	  0.00	  0.00	
     2.24000	    0.000	  0.00	  0.00	
     2.25000	    0.000	  0.00	  0.00	
     2.26000	    0.000	  0.00	  0.00	
     2.27000	    0.000	  0.00	  0.00	
     2.28000	    0.000	  0.00	  0.00	
     2.29000	    0.000	  0.00	  0.00	
     2.30000	    0.000	  0.00	  0.00	
     2.31000	    0.000	  0.00	  0.00	
     2.32000	    0.000	  0.00	  0.00	
     2.33000	    0.000	  0.00	  0.00	
     2.34000	    0.000	  0.00	  0.00	
     2.35000	    0.000	  0.00	  0.00	
     2.36000	    0.000	  0.00	  0.00	
     2.37000	    0.000	  0.00	  0.00	
     2.38000	    0.000	  0.00	  0.00	
     2.39000	    0.000	  0.00	  0.00	
     2.40000	    0.000	  0.00	  0.00	
     2.41000	    0.000	  0.00	  0.00	
     2.42000	    0.000	  0.00	  0.00	
     2.43000	    0.000	  0.00	  0.00	
     2.44000	    0.000	  0.00	  0.00	
     2.45000	    0.000	  0.00	  0.00	
     2.46000	    0.000	  0.00	  0.00	
     2.47000	    0.000	  0.00	  0.00	
     2.48000	    0.000	  0.00	  0.00	
     2.49000	    0.000	  0.00	  0.00	
     2.50000	    0.000	  0.00	  0.00	
     2.51000	    0.000	  0.00	  0.00	
     2.52000	    0.000	  0.00	  0.00	
     2.53000	    0.000	  0.00	  0.00	
     2.54000	    0.000	  0.00	  0.00	
     2.55000	    0.000	  0.00	  0.00	
     2.56000	    0.000	  0.00	  0.00	
     2.57000	    0.000	  0.00	  0.00	
     2.58000	    0.000	  0.00	  0.00	
     2.59000	    0.000	  0.00	  0.00	
     2.60000	    0.000	  0.00	  0.00	
     2.61000	    0.000	  0.00	  0.00	
     2.62000	    0.000	  0.00	  0.00	
     2.63000	    0.000	  0.00	  0.00	
     2.64000	    0.000	  0.00	  0.00	
     2.65000	    0.000	  0.00	  0.00	
     2.66000	    0.000	  0.00	  0.00	
     2.67000	    0.000	  0.00	  0.00	
     2.68000	    0.000	  0.00	  0.00	
     2.69000	    0.000	  0.00	  0.00	
     2.70000	    0.000	  0.00	  0.00	
     2.71000	    0.000	  0.00	  0.00	
     2.72000	    0.000	  0.00	  0.00	
     2.73000	    0.000	  0.00	  0.00	
     2.74000	    0.000	  0.00	  0.00	
     2.75000	    0.000	  0.00	  0.00	
     2.76000	    0.000	  0.00	  0.00	
     2.77000	    0.000	  0.00	  0.00	
     2.78000	    0.000	  0.00	  0.00	
     2.79000	    0.000	  0.00	  0.00	
     2.80000	    0.000	  0.00	  0.00	
     2.81000	    0.000	  0.00	  0.00	
     2.82000	    0.000	  0.00	  0.00	
     2.83000	    0.000	  0.00	  0.00	
     2.84000	    0.000	  0.00	  0.00	
     2.85000	    0.000	  0.00	  0.00	
     2.86000	    0.000	  0.00	  0.00	
     2.87000	    0.000	  0.00	  0.00	
     2.88000	    0.000	  0.00	  0.00	
     2.89000	    0.000	  0.00	  0.00	
     2.90000	    0.000	  0.00	  0.00	
     2.91000	    0.000	  0.00	  0.00	
     2.92000	    0.000	  0.00	  0.00	
     2.93000	    0.000	  0.00	  0.00	
     2.94000	    0.000	  0.00	  0.00	
     2.95000	    0.000	  0.00	  0.00	
     2.96000	    0.000	  0.00	  0.00	
     2.97000	    0.000	  0.00	  0.00	
     2.98000	    2.000	 55.00	 85.00	
     2.99000	    2.000	 55.00	 85.00	
     3.00000	    2.000	 55.00	 85.00	
     3.01000	    2.000	 55.00	 85.00	
     3.02000	    2.000	 55.00	 85.00	
     3.03000	    2.000	 55.00	 85.00	
     3.04000	    2.000	 55.00	 85.00	
     3.05000	    2.000	 55.00	 85.00	
     3.06000	    2.000	 55.00	 85.00	
     3.07000	    2.000	 55.00	 85.00	
     3.08000	    2.000	 55.00	 85.00	
     3.09000	    2.000	 55.00	 85.00	
     3.10000	    2.000	 55.00	 85.00	
     3.11000	    2.000	 55.00	 85.00	
     3.12000	    2.000	 55.00	 85.00	
     3.13000	    2.000	 55.00	 85.00	
     3.14000	    2.000	 55.00	 85.00	
     3.15000	    2.000	 55.00	 85.00	
     3.16000	    2.000	 55.00	 85.00	
     3.17000	    2.000	 55.00	 85.00	
     3.18000	    2.500	 55.00	 85.00	
     3.19000	    2.500	 55.00	 85.00	
     3.20000	    2.500	 55.00	 85.00	
     3.21000	    3.000	 55.00	 85.00	
     3.22000	    3.000	 55.00	 85.00	
     3.23000	    3.000	 55.00	 85.00	
     3.24000	    3.000	 55.00	 85.00	
     3.25000	    3.000	 55.00	 85.00	
     3.26000	    3.000	 55.00	 85.00	
     3.27000	    3.000	 55.00	 85.00	
     3.28000	    2.500	 55.00	 85.00	
     3.29000	    2.500	 55.00	 85.00	
     3.30000	    2.500	 55.00	 85.00	
     3.31000	    2.500	 55.00	 85.00	
     3.32000	    2.000	 55.00	 85.00	
     3.33000	    2.000	 55.00	 85.00	
     3.34000	    2.000	 55.00	 85.00	
     3.35000	    2.000	 55.00	 85.00	
     3.36000	    2.000	 55.00	 85.00	
     3.37000	    2.000	 55.00	 85.00	
     3.38000	    2.000	 55.00	 85.00	
     3.39000	    2.000	 55.00	 85.00	
     3.40000	    2.000	 55.00	 85.00	
     3.41000	    2.000	 55.00	 85.00	
     3.42000	    0.000	  0.00	  0.00	
     3.43000	    0.000	  0.00	  0.00	
     3.44000	    0.000	  0.00	  0.00	
     3.45000	    0.000	  0.00	  0.00	
     3.46000	    0.000	  0.00	  0.00	
     3.47000	    0.000	  0.00	  0.00	
     3.48000	    0.000	  0.00	  0.00	
     3.49000	    0.000	  0.00	  0.00	
     3.50000	    0.000	  0.00	  0.00	
     3.51000	    0.000	  0.00	  0.00	
     3.52000	    0.000	  0.00	  0.00	
     3.53000	    0.000	  0.00	  0.00	
     3.54000	    0.000	  0.00	  0.00	
     3.55000	    0.000	  0.00	  0.00	
     3.56000	    0.000	  0.00	  0.00	
     3.57000	    0.000	  0.00	  0.00	
     3.58000	    0.000	  0.00	  0.00	
     3.59000	    0.000	  0.00	  0.00	
     3.60000	    0.000	  0.00	  0.00	
     3.61000	    0.000	  0.00	  0.00	
     3.62000	    0.000	  0.00	  0.00	
     3.63000	    0.000	  0.00	  0.00	
     3.64000	    0.000	  0.00	  0.00	
     3.65000	    0.000	  0.00	  0.00	
     3.66000	    0.000	  0.00	  0.00	
     3.67000	    0.000	  0.00	  0.00	
     3.68000	    0.000	  0.00	  0.00	
     3.69000	    0.000	  0.00	  0.00	
     3.70000	    0.000	  0.00	  0.00	
     3.71000	    0.000	  0.00	  0.00	
     3.72000	    0.000	  0.00	  0.00	
     3.73000	    0.000	  0.00	  0.00	
     3.74000	    0.000	  0.00	  0.00	
     3.75000	    0.000	  0.00	  0.00	
     3.76000	    0.000	  0.00	  0.00	
     3.77000	    0.000	  0.00	  0.00	
     3.78000	    0.000	  0.00	  0.00	
     3.79000	    0.000	  0.00	  0.00	
     3.80000	    0.000	  0.00	  0.00	
     3.81000	    0.000	  0.00	  0.00	
     3.82000	    0.000	  0.00	  0.00	
     3.83000	    0.000	  0.00	  0.00	
     3.84000	    0.000	  0.00	  0.00	
     3.85000	    0.000	  0.00	  0.00	
     3.86000	    0.000	  0.00	  0.00	
     3.87000	    0.000	  0.00	  0.00	
     3.88000	    0.000	  0.00	  0.00	
     3.89000	    0.000	  0.00	  0.00	
     3.90000	    0.000	  0.00	  0.00	
     3.91000	    0.000	  0.00	  0.00	
     3.92000	    0.000	  0.00	  0.00	
     3.93000	    0.000	  0.00	  0.00	
     3.94000	    0.000	  0.00	  0.00	
     3.95000	    0.000	  0.00	  0.00	
     3.96000	    0.000	  0.00	  0.00	
     3.97000	    0.000	  0.00	  0.00	
     3.98000	    0.000	  0.00	  0.00	
     3.99000	    0.000	  0.00	  0.00	
     4.00000	    0.000	  0.00	  0.00	
     4.01000	    0.000	  0.00	  0.00	
     4.02000	    0.000	  0.00	  0.00	
     4.03000	    0.000	  0.00	  0.00	
     4.04000	    0.000	  0.00	  0.00	
     4.05000	    0.000	  0.00	  0.00	
     4.06000	    0.000	  0.00	  0.00	
     4.07000	    0.000	  0.00	  0.00	
     4.08000	    0.000	  0.00	  0.00	
     4.09000	    0.000	  0.00	  0.00	
     4.10000	    0.000	  0.00	  0.00	
     4.11000	    0.000	  0.00	  0.00	
     4.12000	    0.000	  0.00	  0.00	
     4.13000	    0.000	  0.00	  0.00	
     4.14000	    0.000	  0.00	  0.00	
     4.15000	    0.000	  0.00	  0.00	
     4.16000	    0.000	  0.00	  0.00	
     4.17000	    0.000	  0.00	  0.00	
     4.18000	    0.000	  0.00	  0.00	
     4.19000	    0.000	  0.00	  0.00	
     4.20000	    0.000	  0.00	  0.00	
     4.21000	    0.000	  0.00	  0.00	
     4.22000	    0.000	  0.00	  0.00	
     4.23000	    0.000	  0.00	  0.00	
     4.24000	    0.000	  0.00	  0.00	
     4.25000	    0.000	  0.00	  0.00	
     4.26000	    0.000	  0.00	  0.00	
     4.27000	    0.000	  0.00	  0.00	
     4.28000	    0.000	  0.00	  0.00	
     4.29000	    0.000	  0.00	  0.00	
     4.30000	    0.000	  0.00	  0.00	
     4.31000	    0.000	  0.00	  0.00	
     4.32000	    0.000	  0.00	  0.00	
     4.33000	    0.000	  0.00	  0.00	
     4.34000	    0.000	  0.00	  0.00	
     4.35000	    0.000	  0.00	  0.00	
     4.36000	    0.000	  0.00	  0.00	
     4.37000	    0.000	  0.00	  0.00	
     4.38000	    0.000	  0.00	  0.00	
     4.39000	    0.000	  0.00	  0.00	
     4.40000	    0.000	  0.00	  0.00	
     4.41000	    0.000	  0.00	  0.00	
     4.42000	    0.000	  0.00	  0.00	
     4.43000	    0.000	  0.00	  0.00	
     4.44000	    0.000	  0.00	  0.00	
     4.45000	    0.000	  0.00	  0.00	
     4.46000	    0.000	  0.00	  0.00	
     4.47000	    0.000	  0.00	  0.00	
     4.48000	    0.000	  0.00	  0.00	
     4.49000	    0.000	  0.00	  0.00	
     4.50000	    0.000	  0.00	  0.00	
     4.51000	    0.000	  0.00	  0.00	
     4.52000	    0.000	  0.00	  0.00	
     4.53000	    0.000	  0.00	  0.00	
     4.54000	    0.000	  0.00	  0.00	
     4.55000	    0.000	  0.00	  0.00	
     4.56000	    0.000	  0.00	  0.00	
     4.57000	    0.000	  0.00	  0.00	
     4.58000	    0.000	  0.00	  0.00	
     4.59000	    0.000	  0.00	  0.00	
     4.60000	    0.000	  0.00	  0.00	
     4.61000	    0.000	  0.00	  0.00	
     4.62000	    0.000	  0.00	  0.00	
     4.63000	    0.000	  0.00	  0.00	
     4.64000	    0.000	  0.00	  0.00	
     4.65000	    0.000	  0.00	  0.00	
     4.66000	    0.000	  0.00	  0.00	
     4.67000	    0.000	  0.00	  0.00	
     4.68000	    0.000	  0.00	  0.00	
     4.69000	    0.000	  0.00	  0.00	
     4.70000	    0.000	  0.00	  0.00	
     4.71000	    0.000	  0.00	  0.00	
     4.72000	    0.000	  0.00	  0.00	
     4.73000	    0.000	  0.00	  0.00	
     4.74000	    0.000	  0.00	  0.00	
     4.75000	    0.000	  0.00	  0.00	
     4.76000	    0.000	  0.00	  0.00	
     4.77000	    0.000	  0.00	  0.00	
     4.78000	    0.000	  0.00	  0.00	
     4.79000	    0.000	  0.00	  0.00	
     4.80000	    0.000	  0.00	  0.00	
     4.81000	    0.000	  0.00	  0.00	
     4.82000	    0.000	  0.00	  0.00	
     4.83000	    0.000	  0.00	  0.00	
     4.84000	    0.000	  0.00	  0.00	
     4.85000	    0.000	  0.00	  0.00	
     4.86000	    0.000	  0.00	  0.00	
     4.87000	    0.000	  0.00	  0.00	
     4.88000	    0.000	  0.00	  0.00	
     4.89000	    0.000	  0.00	  0.00	
     4.90000	    0.000	  0.00	  0.00	
     4.91000	    0.000	  0.00	  0.00	
     4.92000	    0.000	  0.00	  0.00	
     4.93000	    0.000	  0.00	  0.00	
     4.94000	    0.000	  0.00	  0.00	
     4.95000	    0.000	  0.00	  0.00	
     4.96000	    0.000	  0.00	  0.00	
     4.97000	    0.000	  0.00	  0.00	
     4.98000	    0.000	  0.00	  0.00	
     4.99000	    0.000	  0.00	  0.00	
     5.00000	    0.000	  0.00	  0.00	
     5.01000	    0.000	  0.00	  0.00	
     5.02000	    0.000	  0.00	  0.00	
     5.03000	    0.000	  0.00	  0.00	
     5.04000	    0.000	  0.00	  0.00	
     5.05000	    0.000	  0.00	  0.00	
     5.06000	    0.000	  0.00	  0.00	
     5.07000	    0.000	  0.00	  0.00	
     5.08000	    0.000	  0.00	  0.00	
     5.09000	    0.000	  0.00	  0.00	
     5.10000	    0.000	  0.00	  0.00	
     5.11000	    0.000	  0.00	  0.00	
     5.12000	    0.000	  0.00	  0.00	
     5.13000	    0.000	  0.00	  0.00	
     5.14000	    0.000	  0.00	  0.00	
     5.15000	    0.000	  0.00	  0.00	
     5.16000	    0.000	  0.00	  0.00	
     5.17000	    0.000	  0.00	  0.00	
     5.18000	    0.000	  0.00	  0.00	
     5.19000	    0.000	  0.00	  0.00	
     5.20000	    0.000	  0.00	  0.00	
     5.21000	    0.000	  0.00	  0.00	
     5.22000	    0.000	  0.00	  0.00	
     5.23000	    4.000	 80.00	105.00	
     5.24000	    2.000	 55.00	 95.00	
     5.25000	    4.000	 80.00	105.00	
     5.26000	    4.000	 80.00	105.00	
     5.27000	    4.000	 80.00	105.00	
     5.28000	    4.000	 80.00	105.00	
     5.29000	    2.000	105.00	115.00	
     5.30000	    4.000	 80.00	105.00	
     5.31000	    4.000	 80.00	105.00	
     5.32000	    4.000	 80.00	105.00	
     5.33000	    4.000	 80.00	105.00	
     5.34000	    6.000	 75.00	 88.33	
     5.35000	    6.500	 71.15	102.69	
     5.36000	    6.000	 68.33	101.67	
     5.37000	    6.000	 68.33	101.67	
     5.38000	    9.000	 68.33	 91.67	
     5.39000	   11.000	 65.91	 90.45	
     5.40000	   11.000	 65.91	 90.45	
     5.41000	   13.000	 64.23	 85.00	
     5.42000	   13.000	 64.23	 85.00	
     5.43000	   13.000	 64.23	 85.00	
     5.44000	   13.500	 63.52	 85.37	
     5.45000	   13.500	 63.52	 85.37	
     5.46000	   14.000	 63.21	 85.71	
     5.47000	   14.000	 63.21	 85.71	
     5.48000	   14.000	 63.21	 85.71	
     5.49000	   14.000	 63.21	 85.71	
     5.50000	   14.000	 63.21	 85.71	
     5.51000	   12.000	 62.92	 90.83	
     5.52000	   12.000	 62.92	 90.83	
     5.53000	   10.500	 63.57	 97.86	
     5.54000	   10.500	 63.57	 97.86	
     5.55000	   12.500	 70.20	 99.00	
     5.56000	   10.500	 63.57	 97.86	
     5.57000	   10.500	 63.57	 97.86	
     5.58000	   13.000	 69.23	 98.85	
     5.59000	   13.000	 69.23	 98.85	
     5.60000	   13.000	 69.23	 98.85	
     5.61000	   13.000	 69.23	 98.85	
     5.62000	   13.000	 69.23	 98.85	
     5.63000	   13.000	 69.23	 98.85	
     5.64000	   13.000	 69.23	 98.85	
     5.65000	   13.500	 70.56	 99.44	
     5.66000	   14.500	 73.28	 99.83	
     5.67000	   15.000	 74.33	100.33	
     5.68000	   15.000	 74.33	100.33	
     5.69000	   17.500	 70.43	100.71	
     5.70000	   18.000	 71.39	100.83	
     5.71000	   18.000	 71.39	100.83	
     5.72000	   20.000	 70.75	100.25	
     5.73000	   20.000	 70.75	100.25	
     5.74000	   20.000	 70.75	100.25	
     5.75000	   22.000	 69.32	 96.14	
     5.76000	   24.000	 67.29	 93.54	
     5.77000	   24.500	 66.84	 93.57	
     5.78000	   25.000	 66.60	 93.60	
     5.79000	   26.000	 65.96	 92.31	
     5.80000	   28.000	 64.46	 89.64	
     5.81000	   34.000	 65.74	 86.47	
     5.82000	   33.000	 63.33	 85.91	
     5.83000	   35.500	 64.86	 85.85	
     5.84000	   36.500	 64.59	 85.68	
     5.85000	   37.000	 64.46	 85.27	
     5.86000	   41.000	 64.15	 82.80	
     5.87000	   40.000	 62.25	 82.50	
     5.88000	   42.500	 63.59	 82.76	
     5.89000	   43.000	 63.49	 81.86	
     5.90000	   42.500	 63.59	 82.29	
     5.91000	   43.000	 63.49	 81.86	
     5.92000	   44.500	 63.09	 81.97	
     5.93000	   43.500	 63.39	 82.13	
     5.94000	   43.000	 63.49	 82.44	
     5.95000	   43.000	 63.49	 82.44	
     5.96000	   43.000	 63.37	 82.56	
     5.97000	   43.000	 63.37	 82.56	
     5.98000	   43.000	 63.37	 82.56	
     5.99000	   42.000	 63.81	 83.10	
     6.00000	   41.500	 63.92	 83.43	
     6.01000	   38.500	 64.48	 86.04	
     6.02000	   38.500	 64.48	 86.04	
     6.03000	   35.500	 64.86	 86.55	
     6.04000	   38.000	 64.61	 86.05	
     6.05000	   37.500	 64.87	 86.47	
     6.06000	   35.500	 64.86	 88.24	
     6.07000	   35.000	 65.14	 88.57	
     6.08000	   31.000	 65.81	 90.32	
     6.09000	   31.000	 65.81	 90.32	
     6.10000	   28.500	 67.63	 92.72	
     6.11000	   28.000	 67.86	 93.39	
     6.12000	   28.500	 68.51	 93.60	
     6.13000	   27.500	 68.27	 93.91	
     6.14000	   28.000	 68.93	 94.11	
     6.15000	   28.000	 68.93	 94.11	
     6.16000	   27.500	 69.18	 94.09	
     6.17000	   28.500	 68.51	 93.60	
     6.18000	   29.000	 71.21	 93.97	
     6.19000	   27.500	 68.27	 93.91	
     6.20000	   27.500	 68.27	 93.91	
     6.21000	   27.500	 68.27	 93.91	
     6.22000	   28.500	 67.63	 92.72	
     6.23000	   30.500	 66.15	 90.25	
     6.24000	   32.500	 68.54	 90.54	
     6.25000	   31.000	 65.81	 89.84	
     6.26000	   35.000	 65.14	 86.43	
     6.27000	   35.500	 64.86	 85.99	
     6.28000	   35.500	 64.86	 85.99	
     6.29000	   37.500	 64.87	 85.93	
     6.30000	   37.500	 64.87	 85.93	
     6.31000	   39.000	 64.36	 84.87	
     6.32000	   41.500	 63.80	 82.71	
     6.33000	   40.000	 63.63	 82.25	
     6.34000	   39.500	 63.61	 82.59	
     6.35000	   42.000	 63.69	 82.38	
     6.36000	   42.000	 63.69	 82.38	
     6.37000	   41.500	 63.92	 82.11	
     6.38000	   39.500	 63.86	 81.96	
     6.39000	   39.500	 63.86	 81.96	
     6.40000	   41.500	 63.92	 82.11	
     6.41000	   39.500	 63.86	 81.96	
     6.42000	   42.000	 63.81	 81.67	
     6.43000	   40.000	 63.63	 82.25	
     6.44000	   42.000	 63.69	 82.38	
     6.45000	   41.500	 63.92	 82.11	
     6.46000	   39.500	 63.86	 81.96	
     6.47000	   41.500	 63.92	 82.11	
     6.48000	   39.500	 63.86	 82.47	
     6.49000	   37.500	 64.20	 83.27	
     6.50000	   37.500	 64.47	 83.27	
     6.51000	   35.000	 65.00	 85.86	
     6.52000	   35.000	 65.00	 85.86	
     6.53000	   35.000	 65.00	 85.86	
     6.54000	   33.000	 65.61	 87.12	
     6.55000	   32.500	 65.92	 87.62	
     6.56000	   28.000	 63.21	 88.93	
     6.57000	   29.500	 65.68	 89.75	
     6.58000	   29.000	 66.90	 90.69	
     6.59000	   29.500	 65.68	 89.75	
     6.60000	   27.000	 63.89	 89.26	
     6.61000	   25.000	 65.40	 92.00	
     6.62000	   26.000	 68.08	 92.88	
     6.63000	   26.500	 64.06	 89.15	
     6.64000	   28.500	 66.23	 89.56	
     6.65000	   26.500	 66.32	 89.15	
     6.66000	   28.500	 66.23	 89.56	
     6.67000	   27.000	 63.70	 88.70	
     6.68000	   26.500	 64.06	 89.15	
     6.69000	   27.000	 63.70	 88.70	
     6.70000	   26.500	 62.92	 88.40	
     6.71000	   28.000	 63.21	 88.21	
     6.72000	   25.000	 62.40	 87.20	
     6.73000	   29.000	 62.07	 86.21	
     6.74000	   31.500	 62.94	 84.52	
     6.75000	   32.000	 62.81	 84.69	
     6.76000	   31.000	 62.42	 84.03	
     6.77000	   31.000	 63.23	 84.19	
     6.78000	   31.500	 63.10	 84.37	
     6.79000	   30.500	 62.54	 83.85	
     6.80000	   30.500	 62.54	 83.85	
     6.81000	   29.000	 62.24	 83.28	
     6.82000	   31.000	 63.23	 84.19	
     6.83000	   28.500	 62.37	 83.07	
     6.84000	   30.500	 62.54	 83.85	
     6.85000	   31.000	 63.23	 84.19	
     6.86000	   30.500	 62.54	 83.85	
     6.87000	   29.000	 63.10	 86.21	
     6.88000	   31.000	 62.42	 84.03	
     6.89000	   30.500	 62.54	 83.85	
     6.90000	   29.000	 63.10	 83.45	
     6.91000	   30.500	 62.54	 83.85	
     6.92000	   30.500	 62.54	 83.85	
     6.93000	   28.500	 62.37	 83.07	
     6.94000	   31.000	 65.16	 84.19	
     6.95000	   29.000	 63.10	 83.45	
     6.96000	   33.000	 65.15	 84.85	
     6.97000	   31.000	 63.23	 84.19	
     6.98000	   29.000	 63.10	 83.45	
     6.99000	   31.000	 65.16	 84.19	
     7.00000	   32.500	 64.54	 84.54	
     7.01000	   31.000	 63.23	 84.19	
     7.02000	   33.000	 65.15	 84.85	
     7.03000	   28.500	 62.37	 83.07	
     7.04000	   28.500	 62.37	 83.07	
     7.05000	   31.000	 63.23	 84.19	
     7.06000	   31.000	 63.23	 84.19	
     7.07000	   31.000	 63.23	 84.19	
     7.08000	   31.000	 63.23	 84.19	
     7.09000	   27.000	 67.41	 84.07	
     7.10000	   26.500	 63.68	 81.42	
     7.11000	   28.500	 62.37	 83.07	
     7.12000	   28.500	 62.37	 83.07	
     7.13000	   29.000	 63.10	 83.45	
     7.14000	   26.500	 66.70	 81.42	
     7.15000	   27.000	 67.41	 81.85	
     7.16000	   24.000	 64.79	 80.00	
     7.17000	   24.000	 64.79	 80.00	
     7.18000	   26.500	 64.81	 81.60	
     7.19000	   24.500	 65.61	 80.51	
     7.20000	   24.000	 64.79	 80.00	
     7.21000	   22.000	 65.68	 79.55	
     7.22000	   24.500	 65.61	 80.51	
     7.23000	   24.000	 64.79	 80.00	
     7.24000	   22.500	 66.56	 80.11	
     7.25000	   22.500	 66.56	 80.11	
     7.26000	   21.500	 66.16	 79.19	
     7.27000	   22.000	 66.14	 78.64	
     7.28000	   22.500	 67.00	 79.22	
     7.29000	   24.500	 69.29	 82.14	
     7.30000	   26.500	 68.21	 79.34	
     7.31000	   24.000	 69.38	 82.50	
     7.32000	   24.000	 69.79	 81.88	
     7.33000	   26.500	 71.98	 84.62	
     7.34000	   27.500	 70.64	 81.91	
     7.35000	   26.000	 72.50	 85.19	
     7.36000	   28.500	 71.84	 82.89	
     7.37000	   26.000	 72.50	 85.19	
     7.38000	   27.500	 70.64	 81.91	
     7.39000	   26.500	 71.98	 84.62	
     7.40000	   26.500	 71.98	 84.62	
     7.41000	   27.500	 70.64	 81.91	
     7.42000	   27.000	 71.11	 81.67	
     7.43000	   25.500	 73.04	 85.00	
     7.44000	   25.000	 72.40	 84.60	
     7.45000	   27.000	 71.11	 81.67	
     7.46000	   27.000	 71.11	 81.67	
     7.47000	   27.000	 71.11	 81.67	
     7.48000	   27.500	 70.64	 81.18	
     7.49000	   28.000	 70.54	 80.89	
     7.50000	   28.000	 71.43	 81.79	
     7.51000	   28.000	 71.43	 81.79	
     7.52000	   27.500	 70.64	 81.18	
     7.53000	   25.500	 73.04	 85.00	
     7.54000	   27.000	 71.11	 81.67	
     7.55000	   27.000	 71.11	 81.67	
     7.56000	   27.000	 71.11	 81.67	
     7.57000	   27.500	 71.73	 82.09	
     7.58000	   27.000	 71.11	 81.67	
     7.59000	   25.500	 73.82	 81.08	
     7.60000	   25.000	 73.20	 80.60	
     7.61000	   25.000	 73.20	 80.60	
     7.62000	   25.000	 73.20	 80.60	
     7.63000	   25.000	 73.20	 80.60	
     7.64000	   23.000	 70.43	 76.74	
     7.65000	   23.500	 74.15	 83.09	
     7.66000	   23.500	 75.43	 84.15	
     7.67000	   25.000	 73.20	 80.60	
     7.68000	   23.000	 74.78	 83.70	
     7.69000	   23.000	 74.78	 83.70	
     7.70000	   23.000	 74.78	 83.70	
     7.71000	   23.000	 74.78	 83.70	
     7.72000	   25.000	 73.20	 80.60	
     7.73000	   23.000	 74.78	 83.70	
     7.74000	   23.000	 74.78	 83.70	
     7.75000	   23.000	 74.78	 83.70	
     7.76000	   23.000	 74.78	 83.70	
     7.77000	   23.000	 74.78	 83.70	
     7.78000	   23.000	 74.78	 83.70	
     7.79000	   25.000	 73.20	 80.60	
     7.80000	   23.000	 74.78	 83.70	
     7.81000	   23.000	 74.78	 83.70	
     7.82000	   23.000	 74.78	 83.70	
     7.83000	   21.000	 72.86	 80.71	
     7.84000	   21.000	 71.90	 79.76	
     7.85000	   23.000	 74.78	 83.70	
     7.86000	   23.000	 74.78	 83.70	
     7.87000	   21.000	 72.86	 80.71	
     7.88000	   23.000	 74.78	 83.70	
     7.89000	   21.000	 72.86	 80.71	
     7.90000	   21.000	 72.86	 80.71	
     7.91000	   23.000	 74.78	 83.70	
     7.92000	   23.000	 74.78	 83.70	
     7.93000	   23.000	 74.78	 83.70	
     7.94000	   23.000	 74.78	 83.70	
     7.95000	   21.000	 72.86	 80.71	
     7.96000	   21.000	 72.86	 80.71	
     7.97000	   21.000	 71.90	 79.76	
     7.98000	   23.000	 74.78	 83.70	
     7.99000	   23.000	 74.78	 83.70	
     8.00000	   21.000	 72.86	 80.71	
     8.01000	   21.000	 72.86	 80.71	
     8.02000	   21.000	 72.86	 80.71	
     8.03000	   21.000	 72.86	 80.71	
     8.04000	   21.000	 72.86	 80.71	
     8.05000	   21.000	 72.86	 80.71	
     8.06000	   23.000	 74.78	 83.70	
     8.07000	   21.000	 72.86	 80.71	
     8.08000	   21.000	 71.90	 79.76	
     8.09000	   21.000	 72.86	 80.71	
     8.10000	   21.000	 72.86	 80.71	
     8.11000	   23.000	 74.78	 83.70	
     8.12000	   21.000	 72.86	 80.71	
     8.13000	   22.500	 75.00	 84.33	
     8.14000	   21.000	 72.86	 80.71	
     8.15000	   21.000	 72.86	 80.71	
     8.16000	   21.000	 72.86	 80.71	
     8.17000	   21.000	 72.86	 80.71	
     8.18000	   19.000	 69.47	 78.16	
     8.19000	   18.500	 69.59	 76.62	
     8.20000	   19.000	 69.47	 76.05	
     8.21000	   16.500	 71.36	 80.45	
     8.22000	   19.000	 74.74	 82.37	
     8.23000	   23.000	 74.78	 83.70	
     8.24000	   21.000	 72.86	 80.71	
     8.25000	   18.500	 75.00	 83.11	
     8.26000	   23.000	 74.78	 83.70	
     8.27000	   21.000	 72.86	 80.71	
     8.28000	   16.500	 71.36	 78.03	
     8.29000	   21.000	 72.86	 80.71	
     8.30000	   17.000	 71.18	 79.71	
     8.31000	   21.000	 72.86	 80.71	
     8.32000	   17.000	 71.18	 79.71	
     8.33000	   17.000	 71.18	 79.71	
     8.34000	   18.500	 75.00	 83.11	
     8.35000	   19.000	 69.47	 78.16	
     8.36000	   17.000	 71.18	 79.71	
     8.37000	   18.500	 75.00	 83.11	
     8.38000	   20.500	 73.05	 81.34	
     8.39000	   16.500	 71.36	 80.45	
     8.40000	   22.000	 75.68	 85.00	
     8.41000	   16.500	 71.36	 80.45	
     8.42000	   18.500	 75.00	 83.11	
     8.43000	   18.000	 75.83	 83.89	
     8.44000	   18.500	 75.00	 83.11	
     8.45000	   20.500	 73.05	 81.34	
     8.46000	   24.500	 72.55	 85.20	
     8.47000	   20.500	 72.07	 84.27	
     8.48000	   22.500	 74.11	 87.00	
     8.49000	   20.000	 72.75	 85.00	
     8.50000	   20.000	 72.75	 85.00	
     8.51000	   23.000	 73.48	 87.17	
     8.52000	   23.000	 73.48	 87.17	
     8.53000	   22.500	 74.11	 87.89	
     8.54000	   20.500	 72.07	 85.24	
     8.55000	   20.000	 72.75	 85.75	
     8.56000	   20.000	 72.75	 85.75	
     8.57000	   20.000	 72.75	 85.75	
     8.58000	   20.000	 72.75	 85.75	
     8.59000	   22.000	 71.14	 86.59	
     8.60000	   19.000	 75.26	 90.26	
     8.61000	   19.000	 75.26	 90.26	
     8.62000	   19.500	 74.74	 90.38	
     8.63000	   19.500	 74.74	 90.38	
     8.64000	   21.500	 72.91	 91.74	
     8.65000	   17.500	 79.29	 94.43	
     8.66000	   17.500	 79.29	 94.43	
     8.67000	   17.000	 80.00	 95.59	
     8.68000	   17.500	 79.29	 94.43	
     8.69000	   17.000	 80.00	 95.59	
     8.70000	   17.000	 80.00	 95.59	
     8.71000	   17.000	 80.00	 95.59	
     8.72000	   17.500	 79.29	 94.43	
     8.73000	   17.500	 79.29	 94.43	
     8.74000	   17.500	 79.29	 94.43	
     8.75000	   17.000	 80.00	 95.59	
     8.76000	   15.000	 83.33	 94.33	
     8.77000	   17.000	 80.00	 95.59	
     8.78000	   17.000	 80.00	 95.59	
     8.79000	   17.500	 79.29	 94.43	
     8.80000	   17.500	 79.29	 94.43	
     8.81000	   15.000	 83.33	 94.33	
     8.82000	   15.500	 82.42	 93.06	
     8.83000	   14.500	 84.31	 94.31	
     8.84000	   17.500	 79.29	 94.43	
     8.85000	   17.000	 80.00	 95.59	
     8.86000	   15.000	 83.33	 94.33	
     8.87000	   15.000	 83.33	 94.33	
     8.88000	   15.000	 83.33	 94.33	
     8.89000	   17.500	 79.29	 94.43	
     8.90000	   15.500	 82.42	 93.06	
     8.91000	   15.000	 83.33	 94.33	
     8.92000	   17.500	 78.14	 89.86	
     8.93000	   17.500	 78.14	 89.86	
     8.94000	   15.000	 83.33	 93.00	
     8.95000	   17.000	 78.82	 90.88	
     8.96000	   17.500	 78.43	 89.86	
     8.97000	   15.000	 83.33	 94.33	
     8.98000	   15.000	 83.33	 93.00	
     8.99000	   15.000	 83.33	 93.00	
     9.00000	   15.000	 83.33	 93.00	
     9.01000	   15.000	 83.33	 93.00	
     9.02000	   15.500	 82.74	 91.77	
     9.03000	   17.000	 78.82	 89.71	
     9.04000	   17.000	 78.82	 89.71	
     9.05000	   15.500	 82.42	 93.06	
     9.06000	   17.500	 78.14	 89.86	
     9.07000	   17.500	 78.14	 89.86	
     9.08000	   17.500	 78.43	 88.71	
     9.09000	   17.000	 78.82	 89.71	
     9.10000	   15.000	 83.33	 93.00	
     9.11000	   17.500	 78.43	 88.71	
     9.12000	   15.000	 83.33	 93.00	
     9.13000	   17.000	 78.82	 89.71	
     9.14000	   17.000	 78.82	 89.71	
     9.15000	   17.500	 78.43	 88.71	
     9.16000	   17.500	 78.43	 88.71	
     9.17000	   17.000	 78.82	 89.71	
     9.18000	   17.000	 78.82	 89.71	
     9.19000	   15.000	 83.33	 93.00	
     9.20000	   17.000	 78.82	 89.71	
     9.21000	   15.000	 83.33	 93.00	
     9.22000	   17.500	 78.43	 88.71	
     9.23000	   15.000	 83.33	 93.00	
     9.24000	   17.000	 78.82	 89.71	
     9.25000	   17.000	 78.82	 89.71	
     9.26000	   15.000	 75.33	 87.67	
     9.27000	   16.500	 79.55	 90.76	
     9.28000	   15.000	 83.33	 93.00	
     9.29000	   16.500	 79.55	 90.76	
     9.30000	   15.000	 83.33	 93.00	
     9.31000	   15.000	 75.33	 87.67	
     9.32000	   17.000	 78.82	 89.71	
     9.33000	   16.500	 79.55	 90.76	
     9.34000	   15.000	 83.67	 93.00	
     9.35000	   14.500	 76.03	 88.79	
     9.36000	   15.000	 75.33	 87.67	
     9.37000	   17.000	 79.12	 89.71	
     9.38000	   13.000	 80.00	 91.15	
     9.39000	   15.000	 83.33	 93.00	
     9.40000	   17.000	 78.82	 89.71	
     9.41000	   12.500	 81.00	 92.60	
     9.42000	   17.000	 78.82	 89.71	
     9.43000	   15.000	 75.33	 87.67	
     9.44000	   14.500	 76.03	 88.79	
     9.45000	   13.000	 80.38	 91.15	
     9.46000	   12.500	 81.00	 92.60	
     9.47000	   17.000	 78.82	 89.71	
     9.48000	   12.500	 81.00	 92.60	
     9.49000	   13.000	 80.38	 91.15	
     9.50000	   12.500	 81.00	 92.60	
     9.51000	   13.000	 80.00	 91.15	
     9.52000	   15.000	 75.33	 87.67	
     9.53000	   15.000	 75.33	 87.67	
     9.54000	   13.000	 80.00	 91.15	
     9.55000	   14.500	 76.03	 88.79	
     9.56000	   14.500	 76.03	 88.79	
     9.57000	   12.500	 81.00	 92.60	
     9.58000	   12.500	 81.00	 92.60	
     9.59000	   15.000	 75.33	 87.67	
     9.60000	   14.500	 76.03	 88.79	
     9.61000	   12.500	 81.00	 92.60	
     9.62000	   15.000	 75.33	 87.67	
     9.63000	   15.000	 75.33	 87.67	
     9.64000	   15.000	 75.33	 87.67	
     9.65000	   12.500	 81.00	 92.60	
     9.66000	   14.500	 76.03	 88.79	
     9.67000	   15.000	 75.33	 87.67	
     9.68000	   17.000	 72.06	 88.53	
     9.69000	   14.500	 76.03	 88.79	
     9.70000	   12.500	 81.00	 92.60	
     9.71000	   17.000	 71.76	 88.53	
     9.72000	   12.500	 81.00	 92.60	
     9.73000	   16.500	 72.27	 89.55	
     9.74000	   17.000	 71.76	 88.53	
     9.75000	   14.500	 76.03	 88.79	
     9.76000	   15.000	 75.33	 87.67	
     9.77000	   18.500	 75.81	 91.22	
     9.78000	   14.500	 76.03	 88.79	
     9.79000	   13.000	 80.00	 91.15	
     9.80000	   16.500	 72.27	 89.55	
     9.81000	   14.500	 76.03	 88.79	
     9.82000	   14.500	 76.03	 88.79	
     9.83000	   14.500	 76.03	 88.79	
     9.84000	   17.000	 72.06	 88.53	
     9.85000	   12.500	 81.00	 92.60	
     9.86000	   12.500	 81.00	 92.60	
     9.87000	   14.500	 76.03	 92.93	
     9.88000	   17.000	 71.76	 88.53	
     9.89000	   16.500	 72.27	 89.55	
     9.90000	   14.500	 76.03	 88.79	
     9.91000	   16.500	 72.27	 89.55	
     9.92000	   17.000	 71.76	 88.53	
     9.93000	   13.000	 80.00	 91.15	
     9.94000	   17.000	 79.12	 93.24	
     9.95000	   12.500	 81.00	 92.60	
     9.96000	   15.000	 75.33	 87.67	
     9.97000	   16.500	 72.27	 89.55	
     9.98000	   16.500	 72.27	 89.55	
     9.99000	   16.500	 72.27	 89.55	
    10.00000	   12.500	 81.00	 92.60	
    10.01000	   16.500	 72.27	 89.55	
    10.02000	   13.000	 80.00	 91.15	
    10.03000	   16.500	 72.27	 89.55	
    10.04000	   16.500	 72.27	 89.55	
    10.05000	   16.500	 72.27	 89.55	
    10.06000	   14.500	 76.03	 92.93	
    10.07000	   16.500	 72.27	 89.55	
    10.08000	   16.500	 79.55	 94.39	
    10.09000	   14.500	 76.03	 92.93	
    10.10000	   17.000	 71.76	 88.53	
    10.11000	   16.500	 72.27	 89.55	
    10.12000	   14.500	 76.03	 92.93	
    10.13000	   16.500	 72.27	 89.55	
    10.14000	   16.500	 72.27	 89.55	
    10.15000	   16.500	 72.27	 89.55	
    10.16000	   17.000	 72.06	 88.53	
    10.17000	   14.500	 76.03	 92.93	
    10.18000	   15.500	 75.00	 90.48	
    10.19000	   14.500	 76.03	 92.93	
    10.20000	   14.500	 76.03	 92.93	
    10.21000	   15.000	 75.33	 91.67	
    10.22000	   17.000	 72.06	 88.53	
    10.23000	   16.500	 72.27	 89.55	
    10.24000	   15.500	 75.00	 90.48	
    10.25000	   15.500	 75.00	 86.61	
    10.26000	   16.500	 72.27	 89.55	
    10.27000	   17.500	 71.57	 87.57	
    10.28000	   17.000	 71.76	 88.53	
    10.29000	   17.000	 71.76	 88.53	
    10.30000	   15.500	 75.00	 90.48	
    10.31000	   17.500	 71.57	 87.57	
    10.32000	   17.500	 71.57	 87.57	
    10.33000	   19.500	 75.00	 89.36	
    10.34000	   19.500	 75.00	 89.36	
    10.35000	   17.000	 71.76	 88.53	
    10.36000	   17.500	 71.57	 87.57	
    10.37000	   17.500	 71.57	 87.57	
    10.38000	   17.000	 72.06	 88.53	
    10.39000	   17.500	 71.57	 87.57	
    10.40000	   16.500	 72.27	 89.55	
    10.41000	   17.500	 71.57	 87.57	
    10.42000	   19.500	 75.00	 89.36	
    10.43000	   17.500	 71.57	 87.57	
    10.44000	   17.500	 71.57	 87.57	
    10.45000	   17.500	 71.57	 87.57	
    10.46000	   17.000	 71.76	 88.53	
    10.47000	   17.500	 71.57	 87.57	
    10.48000	   19.500	 75.00	 89.36	
    10.49000	   17.000	 71.76	 88.53	
    10.50000	   17.500	 71.57	 87.57	
    10.51000	   19.500	 75.00	 89.36	
    10.52000	   17.000	 71.76	 88.53	
    10.53000	   17.500	 71.57	 87.57	
    10.54000	   17.500	 71.57	 87.57	
    10.55000	   19.500	 75.00	 89.36	
    10.56000	   17.500	 71.57	 87.57	
    10.57000	   19.500	 75.00	 89.36	
    10.58000	   17.500	 71.57	 87.57	
    10.59000	   17.500	 71.57	 87.57	
    10.60000	   17.000	 71.76	 88.53	
    10.61000	   19.500	 75.00	 89.36	
    10.62000	   17.500	 71.57	 87.57	
    10.63000	   19.500	 75.00	 89.36	
    10.64000	   15.000	 75.67	 91.67	
    10.65000	   17.000	 71.76	 88.53	
    10.66000	   19.500	 75.00	 89.36	
    10.67000	   17.500	 71.57	 87.57	
    10.68000	   15.500	 75.00	 90.48	
    10.69000	   15.500	 75.00	 90.48	
    10.70000	   17.000	 71.76	 88.53	
    10.71000	   16.500	 72.27	 89.55	
    10.72000	   17.500	 71.57	 87.57	
    10.73000	   15.500	 75.00	 90.48	
    10.74000	   17.500	 71.57	 87.57	
    10.75000	   17.500	 71.57	 87.57	
    10.76000	   17.500	 71.57	 87.57	
    10.77000	   17.500	 71.57	 87.57	
    10.78000	   17.500	 71.57	 87.57	
    10.79000	   17.500	 71.57	 87.57	
    10.80000	   17.500	 71.57	 87.57	
    10.81000	   17.000	 72.06	 88.53	
    10.82000	   17.000	 72.06	 88.53	
    10.83000	   17.500	 71.57	 87.57	
    10.84000	   17.500	 71.57	 87.57	
    10.85000	   17.000	 71.76	 88.53	
    10.86000	   17.000	 72.06	 88.53	
    10.87000	   17.500	 71.57	 87.57	
    10.88000	   17.500	 71.57	 87.57	
    10.89000	   17.500	 71.57	 87.57	
    10.90000	   17.500	 71.57	 87.57	
    10.91000	   17.500	 71.57	 87.57	
    10.92000	   17.000	 71.76	 88.53	
    10.93000	   16.500	 72.27	 89.55	
    10.94000	   16.500	 72.27	 89.55	
    10.95000	   17.000	 72.06	 88.53	
    10.96000	   16.500	 72.27	 89.55	
    10.97000	   15.000	 75.33	 87.67	
    10.98000	   16.500	 72.27	 89.55	
    10.99000	   15.000	 75.67	 87.67	
    11.00000	   14.500	 76.03	 88.79	
    11.01000	   17.500	 71.57	 87.57	
    11.02000	   16.500	 72.27	 89.55	
    11.03000	   17.500	 71.57	 87.57	
    11.04000	   17.500	 71.57	 87.57	
    11.05000	   17.000	 72.06	 88.53	
    11.06000	   16.500	 72.27	 89.55	
    11.07000	   17.500	 71.57	 87.57	
    11.08000	   17.500	 71.57	 87.57	
    11.09000	   14.500	 76.03	 92.93	
    11.10000	   17.000	 72.06	 88.53	
    11.11000	   14.500	 76.03	 92.93	
    11.12000	   17.000	 72.06	 88.53	
    11.13000	   16.500	 72.27	 89.55	
    11.14000	   17.000	 72.06	 88.53	
    11.15000	   17.000	 72.06	 88.53	
    11.16000	   17.000	 72.06	 88.53	
    11.17000	   17.500	 71.57	 87.57	
    11.18000	   15.000	 75.67	 91.67	
    11.19000	   16.500	 72.27	 89.55	
    11.20000	   17.000	 72.06	 88.53	
    11.21000	   17.500	 71.57	 87.57	
    11.22000	   17.000	 72.06	 88.53	
    11.23000	   14.500	 76.03	 92.93	
    11.24000	   17.000	 71.76	 88.53	
    11.25000	   16.500	 72.27	 89.55	
    11.26000	   17.500	 71.57	 87.57	
    11.27000	   15.000	 75.67	 91.67	
    11.28000	   17.000	 72.06	 88.53	
    11.29000	   18.500	 75.81	 91.22	
    11.30000	   19.000	 75.26	 90.26	
    11.31000	   15.000	 75.67	 91.67	
    11.32000	   15.500	 75.00	 90.48	
    11.33000	   17.000	 72.06	 88.53	
    11.34000	   19.000	 75.26	 90.26	
    11.35000	   16.500	 72.27	 89.55	
    11.36000	   17.000	 71.76	 88.53	
    11.37000	   18.500	 75.81	 91.22	
    11.38000	   19.000	 75.53	 90.26	
    11.39000	   16.500	 72.27	 89.55	
    11.40000	   19.500	 75.00	 89.36	
    11.41000	   15.000	 75.67	 91.67	
    11.42000	   17.000	 72.06	 88.53	
    11.43000	   19.000	 75.53	 90.26	
    11.44000	   14.500	 76.03	 92.93	
    11.45000	   17.000	 72.06	 88.53	
    11.46000	   15.000	 75.67	 91.67	
    11.47000	   17.500	 78.43	 92.14	
    11.48000	   17.000	 72.06	 88.53	
    11.49000	   14.500	 76.03	 92.93	
    11.50000	   17.000	 79.12	 93.24	
    11.51000	   14.500	 76.03	 92.93	
    11.52000	   15.500	 75.00	 90.48	
    11.53000	   17.500	 71.57	 87.57	
    11.54000	   14.500	 76.03	 92.93	
    11.55000	   15.000	 75.67	 91.67	
    11.56000	   15.000	 75.67	 91.67	
    11.57000	   17.500	 71.57	 87.57	
    11.58000	   17.500	 71.57	 87.57	
    11.59000	   17.500	 71.57	 87.57	
    11.60000	   16.500	 72.27	 89.55	
    11.61000	   17.000	 71.76	 88.53	
    11.62000	   15.500	 75.00	 90.48	
    11.63000	   15.500	 75.00	 90.48	
    11.64000	   17.500	 71.57	 87.57	
    11.65000	   15.000	 75.33	 91.67	
    11.66000	   15.500	 75.00	 90.48	
    11.67000	   15.000	 75.33	 91.67	
    11.68000	   17.500	 71.57	 87.57	
    11.69000	   15.000	 67.67	 83.67	
    11.70000	   17.500	 71.57	 87.57	
    11.71000	   17.000	 72.06	 88.53	
    11.72000	   19.500	 75.00	 89.36	
    11.73000	   17.500	 78.43	 92.14	
    11.74000	   15.000	 75.33	 91.67	
    11.75000	   19.500	 75.00	 89.36	
    11.76000	   19.500	 75.00	 89.36	
    11.77000	   17.500	 71.57	 87.57	
    11.78000	   17.500	 71.57	 87.57	
    11.79000	   17.500	 71.57	 87.57	
    11.80000	   17.000	 72.06	 88.53	
    11.81000	   15.000	 75.33	 91.67	
    11.82000	   17.500	 78.43	 92.14	
    11.83000	   19.500	 75.00	 89.36	
    11.84000	   17.000	 78.82	 93.24	
    11.85000	   17.000	 72.06	 88.53	
    11.86000	   17.500	 78.43	 92.14	
    11.87000	   15.500	 75.00	 90.48	
    11.88000	   19.500	 75.00	 89.36	
    11.89000	   17.500	 78.43	 92.14	
    11.90000	   17.500	 71.57	 87.57	
    11.91000	   19.500	 75.00	 89.36	
    11.92000	   15.500	 75.00	 90.48	
    11.93000	   19.500	 75.00	 89.36	
    11.94000	   17.500	 71.57	 87.57	
    11.95000	   17.500	 71.57	 87.57	
    11.96000	   15.500	 67.26	 82.74	
    11.97000	   17.500	 71.57	 87.57	
    11.98000	   19.500	 75.00	 89.36	
    11.99000	   19.500	 75.00	 89.36	
    12.00000	   17.500	 71.57	 87.57	
    12.01000	   17.500	 71.57	 87.57	
    12.02000	   19.500	 75.00	 89.36	
    12.03000	   17.500	 71.57	 87.57	
    12.04000	   19.500	 75.00	 89.36	
    12.05000	   19.500	 75.00	 89.36	
    12.06000	   17.500	 71.57	 87.57	
    12.07000	   17.500	 71.57	 87.57	
    12.08000	   19.000	 75.53	 90.26	
    12.09000	   19.500	 75.00	 89.36	
    12.10000	   19.500	 75.00	 89.36	
    12.11000	   19.500	 75.00	 89.36	
    12.12000	   19.500	 75.00	 89.36	
    12.13000	   17.000	 72.06	 88.53	
    12.14000	   19.500	 75.00	 89.36	
    12.15000	   19.500	 75.00	 89.36	
    12.16000	   17.500	 71.57	 87.57	
    12.17000	   19.500	 75.00	 89.36	
    12.18000	   17.500	 71.57	 87.57	
    12.19000	   17.500	 71.57	 87.57	
    12.20000	   19.500	 75.00	 89.36	
    12.21000	   17.500	 71.57	 87.57	
    12.22000	   19.500	 75.00	 89.36	
    12.23000	   17.500	 71.57	 87.57	
    12.24000	   17.500	 71.57	 87.57	
    12.25000	   19.000	 75.53	 90.26	
    12.26000	   15.000	 75.33	 91.67	
    12.27000	   15.000	 75.67	 91.67	
    12.28000	   17.500	 71.57	 87.57	
    12.29000	   19.500	 75.00	 89.36	
    12.30000	   17.500	 71.57	 87.57	
    12.31000	   17.500	 71.57	 87.57	
    12.32000	   15.500	 75.00	 90.48	
    12.33000	   17.500	 71.57	 87.57	
    12.34000	   17.500	 71.57	 87.57	
    12.35000	   17.500	 71.57	 87.57	
    12.36000	   19.500	 75.00	 89.36	
    12.37000	   14.500	 76.03	 92.93	
    12.38000	   15.500	 75.00	 90.48	
    12.39000	   17.500	 71.57	 87.57	
    12.40000	   17.500	 71.57	 87.57	
    12.41000	   17.000	 71.76	 88.53	
    12.42000	   17.000	 72.06	 88.53	
    12.43000	   17.500	 71.57	 87.57	
    12.44000	   17.000	 72.06	 88.53	
    12.45000	   15.500	 75.00	 90.48	
    12.46000	   17.500	 71.57	 87.57	
    12.47000	   17.500	 71.57	 87.57	
    12.48000	   17.500	 71.57	 87.57	
    12.49000	   17.000	 72.06	 88.53	
    12.50000	   17.500	 71.57	 87.57	
    12.51000	   17.500	 71.57	 87.57	
    12.52000	   17.500	 71.57	 87.57	
    12.53000	   19.500	 75.00	 89.36	
    12.54000	   17.500	 71.57	 87.57	
    12.55000	   17.000	 72.06	 88.53	
    12.56000	   17.000	 72.06	 88.53	
    12.57000	   17.000	 72.06	 88.53	
    12.58000	   17.500	 71.57	 87.57	
    12.59000	   17.000	 72.06	 88.53	
    12.60000	   17.500	 71.57	 87.57	
    12.61000	   17.000	 72.06	 88.53	
    12.62000	   13.000	 71.15	 86.54	
    12.63000	   15.000	 75.33	 91.67	
    12.64000	   17.500	 71.57	 87.57	
    12.65000	   17.500	 71.57	 87.57	
    12.66000	   17.500	 71.57	 87.57	
    12.67000	   17.500	 71.57	 87.57	
    12.68000	   15.500	 67.26	 82.74	
    12.69000	   15.500	 75.00	 90.48	
    12.70000	   17.500	 71.57	 87.57	
    12.71000	   17.500	 71.57	 87.57	
    12.72000	   15.500	 75.00	 90.48	
    12.73000	   13.500	 70.56	 85.37	
    12.74000	   17.500	 71.57	 85.29	
    12.75000	   14.500	 76.03	 92.93	
    12.76000	   17.000	 72.06	 86.18	
    12.77000	   17.000	 72.06	 88.53	
    12.78000	   17.500	 71.57	 85.29	
    12.79000	   17.500	 71.57	 85.29	
    12.80000	   15.500	 67.26	 82.74	
    12.81000	   17.500	 71.57	 87.57	
    12.82000	   15.500	 67.26	 82.74	
    12.83000	   15.500	 67.26	 82.74	
    12.84000	   17.500	 71.57	 87.57	
    12.85000	   15.000	 67.33	 83.67	
    12.86000	   15.500	 67.26	 82.74	
    12.87000	   15.000	 67.67	 83.67	
    12.88000	   15.500	 67.26	 82.74	
    12.89000	   15.500	 67.26	 82.74	
    12.90000	   13.000	 70.77	 86.54	
    12.91000	   15.500	 67.26	 82.74	
    12.92000	   13.000	 71.15	 86.54	
    12.93000	   15.500	 75.00	 90.48	
    12.94000	   15.000	 67.33	 83.67	
    12.95000	   15.500	 67.26	 82.74	
    12.96000	   15.500	 67.26	 82.74	
    12.97000	   15.500	 67.26	 82.74	
    12.98000	   15.500	 67.26	 82.74	
    12.99000	   15.500	 67.26	 82.74	
    13.00000	   15.500	 67.26	 82.74	
    13.01000	   15.500	 67.26	 82.74	
    13.02000	   14.500	 67.76	 84.66	
    13.03000	   15.500	 67.26	 82.74	
    13.04000	   15.500	 67.26	 82.74	
    13.05000	   15.500	 67.26	 82.74	
    13.06000	   15.500	 67.26	 82.74	
    13.07000	   15.500	 67.26	 82.74	
    13.08000	   15.500	 67.26	 82.74	
    13.09000	   15.500	 67.26	 82.74	
    13.10000	   15.500	 67.26	 82.74	
    13.11000	   15.500	 67.26	 82.74	
    13.12000	   15.500	 67.26	 82.74	
    13.13000	   15.500	 67.26	 82.74	
    13.14000	   15.500	 67.26	 82.74	
    13.15000	   15.500	 67.26	 82.74	
    13.16000	   15.500	 67.26	 82.74	
    13.17000	   15.500	 67.26	 82.74	
    13.18000	   15.500	 67.26	 82.74	
    13.19000	   15.500	 67.26	 82.74	
    13.20000	   15.500	 67.26	 82.74	
    13.21000	   15.500	 67.26	 82.74	
    13.22000	   15.500	 67.26	 82.74	
    13.23000	   15.500	 67.26	 82.74	
    13.24000	   13.500	 70.56	 85.37	
    13.25000	   15.500	 67.26	 82.74	
    13.26000	   15.500	 67.26	 82.74	
    13.27000	   15.500	 67.26	 82.74	
    13.28000	   15.500	 67.26	 82.74	
    13.29000	   15.500	 67.26	 82.74	
    13.30000	   15.500	 67.26	 82.74	
    13.31000	   15.500	 67.26	 82.74	
    13.32000	   15.500	 67.26	 82.74	
    13.33000	   15.500	 67.26	 82.74	
    13.34000	   15.500	 67.26	 82.74	
    13.35000	   17.500	 64.71	 79.57	
    13.36000	   15.500	 67.26	 82.74	
    13.37000	   15.500	 67.26	 82.74	
    13.38000	   15.500	 67.26	 82.74	
    13.39000	   15.500	 67.26	 82.74	
    13.40000	   15.500	 67.26	 82.74	
    13.41000	   15.500	 67.26	 82.74	
    13.42000	   15.500	 67.26	 82.74	
    13.43000	   15.500	 67.26	 82.74	
    13.44000	   15.500	 67.26	 82.74	
    13.45000	   15.500	 67.26	 82.74	
    13.46000	   15.500	 67.26	 82.74	
    13.47000	   15.500	 67.26	 82.74	
    13.48000	   15.500	 67.26	 82.74	
    13.49000	   17.500	 64.71	 79.57	
    13.50000	   15.500	 67.26	 82.74	
    13.51000	   15.500	 67.26	 82.74	
    13.52000	   18.000	 64.17	 80.00	
    13.53000	   17.500	 64.71	 79.57	
    13.54000	   17.500	 67.00	 78.43	
    13.55000	   17.500	 64.71	 79.57	
    13.56000	   19.500	 68.85	 82.18	
    13.57000	   17.500	 64.71	 79.57	
    13.58000	   17.500	 71.57	 85.29	
    13.59000	   19.500	 68.85	 82.18	
    13.60000	   20.000	 68.25	 82.50	
    13.61000	   18.000	 70.83	 85.56	
    13.62000	   20.500	 63.78	 76.22	
    13.63000	   18.000	 70.83	 85.56	
    13.64000	   20.000	 68.25	 82.50	
    13.65000	   24.000	 67.71	 80.42	
    13.66000	   22.000	 67.95	 83.64	
    13.67000	   22.000	 67.95	 79.09	
    13.68000	   18.000	 70.83	 85.56	
    13.69000	   22.000	 67.95	 83.64	
    13.70000	   18.000	 64.17	 80.00	
    13.71000	   18.000	 64.17	 80.00	
    13.72000	   22.000	 67.95	 83.64	
    13.73000	   18.000	 70.83	 85.56	
    13.74000	   22.000	 64.32	 78.18	
    13.75000	   19.500	 68.85	 82.18	
    13.76000	   20.000	 68.25	 82.50	
    13.77000	   22.000	 67.95	 79.09	
    13.78000	   20.000	 68.25	 82.50	
    13.79000	   20.000	 70.25	 81.50	
    13.80000	   20.000	 68.25	 82.50	
    13.81000	   20.000	 68.25	 82.50	
    13.82000	   18.000	 70.83	 85.56	
    13.83000	   22.000	 67.95	 79.09	
    13.84000	   22.000	 67.95	 79.09	
    13.85000	   24.000	 67.71	 80.42	
    13.86000	   20.000	 68.25	 82.50	
    13.87000	   19.500	 68.85	 82.18	
    13.88000	   22.000	 67.05	 82.73	
    13.89000	   20.000	 68.25	 82.50	
    13.90000	   22.000	 67.95	 79.09	
    13.91000	   22.000	 67.95	 79.09	
    13.92000	   18.000	 70.83	 85.56	
    13.93000	   18.000	 70.83	 85.56	
    13.94000	   20.000	 68.25	 82.50	
    13.95000	   17.500	 71.57	 85.29	
    13.96000	   17.500	 71.57	 85.29	
    13.97000	   17.500	 71.57	 85.29	
    13.98000	   17.500	 71.57	 85.29	
    13.99000	   17.500	 64.71	 79.57	
    14.00000	   18.000	 70.83	 85.56	
    14.01000	   15.500	 67.26	 82.74	
    14.02000	   20.000	 70.25	 81.50	
    14.03000	   20.000	 68.25	 82.50	
    14.04000	   19.500	 68.85	 82.18	
    14.05000	   17.500	 71.57	 85.29	
    14.06000	   19.500	 68.85	 82.18	
    14.07000	   17.500	 71.57	 85.29	
    14.08000	   17.500	 71.57	 85.29	
    14.09000	   20.000	 68.25	 82.50	
    14.10000	   18.000	 70.83	 85.56	
    14.11000	   19.500	 70.90	 81.15	
    14.12000	   19.500	 68.85	 82.18	
    14.13000	   18.000	 70.83	 85.56	
    14.14000	   19.500	 68.85	 82.18	
    14.15000	   17.500	 71.57	 85.29	
    14.16000	   19.500	 68.85	 82.18	
    14.17000	   19.500	 68.85	 82.18	
    14.18000	   18.000	 70.83	 85.56	
    14.19000	   20.000	 68.25	 82.50	
    14.20000	   18.000	 70.83	 85.56	
    14.21000	   17.500	 67.00	 84.14	
    14.22000	   20.000	 68.25	 82.50	
    14.23000	   18.000	 70.83	 85.56	
    14.24000	   20.000	 68.25	 82.50	
    14.25000	   19.500	 68.85	 82.18	
    14.26000	   18.000	 70.83	 85.56	
    14.27000	   17.500	 71.57	 85.29	
    14.28000	   18.000	 64.17	 80.00	
    14.29000	   20.000	 68.25	 82.50	
    14.30000	   18.000	 64.17	 80.00	
    14.31000	   18.000	 64.17	 80.00	
    14.32000	   18.000	 70.83	 85.56	
    14.33000	   20.000	 68.25	 82.50	
    14.34000	   18.000	 70.83	 85.56	
    14.35000	   18.000	 70.83	 85.56	
    14.36000	   20.000	 68.25	 82.50	
    14.37000	   20.000	 68.25	 82.50	
    14.38000	   20.000	 68.25	 82.50	
    14.39000	   20.000	 68.25	 82.50	
    14.40000	   17.500	 71.57	 85.29	
    14.41000	   18.000	 70.83	 85.56	
    14.42000	   18.000	 64.17	 80.00	
    14.43000	   19.500	 68.85	 82.18	
    14.44000	   17.500	 64.71	 79.57	
    14.45000	   20.000	 68.25	 82.50	
    14.46000	   20.000	 68.25	 82.50	
    14.47000	   20.000	 68.25	 82.50	
    14.48000	   20.000	 68.25	 82.50	
    14.49000	   17.500	 71.57	 85.29	
    14.50000	   20.000	 68.25	 82.50	
    14.51000	   20.000	 68.25	 82.50	
    14.52000	   18.000	 70.83	 85.56	
    14.53000	   20.500	 67.68	 82.07	
    14.54000	   20.500	 67.68	 82.07	
    14.55000	   20.000	 68.25	 82.50	
    14.56000	   20.000	 68.25	 82.50	
    14.57000	   20.000	 68.25	 82.50	
    14.58000	   20.000	 68.25	 82.50	
    14.59000	   20.000	 68.25	 82.50	
    14.60000	   20.000	 68.25	 82.50	
    14.61000	   20.000	 68.25	 82.50	
    14.62000	   18.000	 70.83	 85.56	
    14.63000	   20.000	 68.25	 82.50	
    14.64000	   18.000	 70.83	 85.56	
    14.65000	   18.000	 70.83	 85.56	
    14.66000	   18.000	 70.83	 85.56	
    14.67000	   20.000	 68.25	 82.50	
    14.68000	   22.000	 67.95	 83.64	
    14.69000	   20.000	 68.25	 82.50	
    14.70000	   20.500	 67.68	 82.07	
    14.71000	   20.000	 68.25	 82.50	
    14.72000	   22.000	 66.14	 84.55	
    14.73000	   22.000	 66.14	 84.55	
    14.74000	   24.500	 65.61	 85.00	
    14.75000	   22.000	 67.95	 83.64	
    14.76000	   22.000	 67.95	 83.64	
    14.77000	   22.000	 67.95	 83.64	
    14.78000	   24.500	 66.43	 83.37	
    14.79000	   22.500	 67.44	 83.22	
    14.80000	   20.000	 68.25	 82.50	
    14.81000	   22.000	 67.95	 79.09	
    14.82000	   22.000	 67.95	 83.64	
    14.83000	   22.000	 67.95	 79.09	
    14.84000	   22.000	 67.05	 79.09	
    14.85000	   20.000	 68.25	 82.50	
    14.86000	   26.000	 65.96	 75.38	
    14.87000	   26.000	 66.73	 80.77	
    14.88000	   22.000	 67.95	 79.09	
    14.89000	   26.000	 65.96	 76.92	
    14.90000	   26.000	 66.73	 77.69	
    14.91000	   26.500	 65.57	 75.19	
    14.92000	   26.500	 67.45	 78.21	
    14.93000	   33.000	 67.27	 78.64	
    14.94000	   33.500	 68.43	 80.97	
    14.95000	   35.500	 69.93	 81.76	
    14.96000	   35.500	 69.93	 81.76	
    14.97000	   35.000	 67.86	 80.43	
    14.98000	   36.500	 69.52	 81.03	
    14.99000	   34.500	 68.04	 80.22	
    15.00000	   35.500	 67.68	 79.37	
    15.01000	   30.500	 69.26	 78.93	
    15.02000	   33.000	 68.94	 79.39	
    15.03000	   32.500	 69.00	 79.77	
    15.04000	   34.500	 70.51	 80.80	
    15.05000	   35.500	 67.82	 79.37	
    15.06000	   36.500	 69.79	 80.89	
    15.07000	   34.500	 68.19	 80.07	
    15.08000	   32.000	 68.59	 79.69	
    15.09000	   32.500	 68.38	 79.31	
    15.10000	   34.500	 68.19	 80.22	
    15.11000	   34.000	 67.50	 79.85	
    15.12000	   35.000	 67.43	 78.86	
    15.13000	   32.000	 68.59	 79.38	
    15.14000	   34.000	 67.79	 79.71	
    15.15000	   30.000	 65.67	 77.50	
    15.16000	   32.000	 65.47	 78.13	
    15.17000	   31.000	 65.81	 78.87	
    15.18000	   33.000	 68.18	 80.45	
    15.19000	   29.000	 66.55	 78.45	
    15.20000	   30.500	 65.82	 79.26	
    15.21000	   29.000	 65.86	 77.76	
    15.22000	   29.000	 65.86	 77.76	
    15.23000	   31.500	 65.79	 78.33	
    15.24000	   27.000	 63.70	 75.74	
    15.25000	   25.500	 64.41	 74.41	
    15.26000	   26.500	 62.92	 75.00	
    15.27000	   25.500	 64.41	 74.41	
    15.28000	   24.500	 63.57	 74.18	
    15.29000	   27.000	 63.70	 75.74	
    15.30000	   26.000	 64.23	 73.85	
    15.31000	   25.500	 64.41	 74.41	
    15.32000	   27.500	 63.55	 75.18	
    15.33000	   28.500	 64.30	 75.53	
    15.34000	   28.500	 63.42	 74.30	
    15.35000	   26.500	 64.06	 73.49	
    15.36000	   26.500	 65.00	 74.81	
    15.37000	   28.000	 64.29	 76.07	
    15.38000	   26.500	 65.00	 74.81	
    15.39000	   23.000	 67.39	 77.39	
    15.40000	   25.000	 65.60	 75.60	
    15.41000	   26.000	 65.19	 75.38	
    15.42000	   25.000	 65.60	 75.60	
    15.43000	   24.500	 65.61	 76.02	
    15.44000	   25.000	 65.60	 75.60	
    15.45000	   24.500	 65.61	 76.02	
    15.46000	   25.000	 65.60	 75.60	
    15.47000	   24.500	 65.61	 76.02	
    15.48000	   24.500	 65.61	 76.02	
    15.49000	   22.500	 67.44	 77.89	
    15.50000	   24.500	 65.61	 76.02	
    15.51000	   22.500	 67.44	 77.89	
    15.52000	   22.500	 67.44	 77.89	
    15.53000	   24.500	 65.61	 76.02	
    15.54000	   23.000	 66.96	 78.26	
    15.55000	   24.500	 65.61	 76.02	
    15.56000	   23.000	 66.96	 78.26	
    15.57000	   25.500	 65.20	 75.98	
    15.58000	   22.500	 67.44	 77.89	
    15.59000	   25.000	 65.20	 76.40	
    15.60000	   25.500	 65.20	 75.98	
    15.61000	   24.500	 65.61	 76.02	
    15.62000	   24.500	 65.61	 76.02	
    15.63000	   25.000	 65.20	 76.40	
    15.64000	   24.500	 65.61	 76.02	
    15.65000	   24.500	 65.61	 76.02	
    15.66000	   25.000	 65.20	 76.40	
    15.67000	   25.000	 65.20	 76.40	
    15.68000	   23.000	 66.96	 78.26	
    15.69000	   24.500	 65.61	 76.02	
    15.70000	   25.000	 65.20	 75.80	
    15.71000	   27.500	 67.73	 78.27	
    15.72000	   25.000	 65.20	 75.80	
    15.73000	   28.000	 67.68	 77.86	
    15.74000	   28.000	 67.68	 77.86	
    15.75000	   29.500	 69.58	 80.08	
    15.76000	   30.000	 69.50	 79.67	
    15.77000	   30.000	 69.50	 79.67	
    15.78000	   30.500	 69.10	 79.26	
    15.79000	   31.000	 68.87	 78.87	
    15.80000	   31.000	 69.03	 79.03	
    15.81000	   32.500	 68.85	 78.85	
    15.82000	   33.500	 67.24	 80.22	
    15.83000	   32.500	 68.85	 78.85	
    15.84000	   32.000	 68.28	 78.44	
    15.85000	   33.000	 68.79	 78.33	
    15.86000	   35.000	 68.00	 80.86	
    15.87000	   35.000	 68.00	 80.86	
    15.88000	   37.000	 67.84	 81.62	
    15.89000	   37.000	 67.84	 81.62	
    15.90000	   35.000	 68.00	 80.86	
    15.91000	   39.000	 67.18	 81.79	
    15.92000	   39.500	 67.03	 81.33	
    15.93000	   37.000	 67.84	 81.62	
    15.94000	   37.500	 67.13	 80.60	
    15.95000	   39.500	 67.03	 81.33	
    15.96000	   39.000	 67.18	 81.79	
    15.97000	   37.500	 67.67	 81.13	
    15.98000	   37.500	 67.67	 81.13	
    15.99000	   39.500	 67.03	 81.33	
    16.00000	   37.500	 67.67	 81.13	
    16.01000	   37.500	 67.67	 81.13	
    16.02000	   35.000	 68.00	 80.86	
    16.03000	   37.500	 67.67	 81.13	
    16.04000	   37.500	 67.67	 81.13	
    16.05000	   37.500	 67.67	 81.13	
    16.06000	   35.000	 67.29	 79.86	
    16.07000	   37.500	 67.13	 80.60	
    16.08000	   39.000	 67.18	 81.79	
    16.09000	   37.500	 67.67	 81.13	
    16.10000	   37.000	 67.16	 80.68	
    16.11000	   37.500	 67.67	 81.13	
    16.12000	   37.000	 67.16	 80.68	
    16.13000	   37.000	 67.16	 80.68	
    16.14000	   37.000	 67.16	 80.68	
    16.15000	   36.500	 67.33	 81.16	
    16.16000	   38.500	 66.69	 81.36	
    16.17000	   37.000	 67.16	 80.68	
    16.18000	   39.000	 66.54	 80.90	
    16.19000	   39.000	 66.54	 80.90	
    16.20000	   37.000	 67.16	 80.68	
    16.21000	   35.000	 67.29	 79.86	
    16.22000	   38.000	 66.84	 81.58	
    16.23000	   36.500	 67.33	 81.16	
    16.24000	   38.500	 66.69	 81.36	
    16.25000	   35.500	 66.97	 80.77	
    16.26000	   38.500	 66.69	 81.36	
    16.27000	   35.500	 66.97	 81.06	
    16.28000	   36.500	 67.33	 81.16	
    16.29000	   36.000	 66.25	 79.72	
    16.30000	   38.000	 66.18	 81.05	
    16.31000	   38.000	 66.18	 81.18	
    16.32000	   37.000	 67.03	 81.89	
    16.33000	   36.500	 66.64	 80.75	
    16.34000	   39.500	 65.51	 81.46	
    16.35000	   38.000	 66.84	 81.58	
    16.36000	   38.500	 66.04	 80.97	
    16.37000	   38.000	 66.18	 81.18	
    16.38000	   36.000	 66.81	 80.97	
    16.39000	   37.500	 66.33	 81.00	
    16.40000	   38.000	 66.18	 81.18	
    16.41000	   38.000	 66.05	 81.32	
    16.42000	   36.000	 66.81	 80.97	
    16.43000	   38.000	 66.18	 81.58	
    16.44000	   37.500	 66.33	 81.00	
    16.45000	   37.500	 66.33	 81.00	
    16.46000	   35.500	 66.97	 80.77	
    16.47000	   37.000	 66.35	 80.81	
    16.48000	   38.500	 65.91	 81.49	
    16.49000	   37.000	 66.22	 81.08	
    16.50000	   36.000	 66.67	 81.11	
    16.51000	   36.500	 66.51	 80.62	
    16.52000	   37.000	 66.35	 81.08	
    16.53000	   38.000	 66.18	 81.18	
    16.54000	   36.500	 66.51	 80.89	
    16.55000	   40.000	 65.38	 81.00	
    16.56000	   39.000	 65.77	 81.28	
    16.57000	   36.500	 66.51	 80.75	
    16.58000	   40.000	 65.38	 81.00	
    16.59000	   37.500	 66.07	 80.60	
    16.60000	   40.000	 65.38	 81.00	
    16.61000	   37.000	 65.68	 80.14	
    16.62000	   39.000	 65.64	 81.28	
    16.63000	   35.500	 66.27	 80.21	
    16.64000	   39.000	 65.77	 80.51	
    16.65000	   36.500	 65.68	 80.75	
    16.66000	   37.500	 66.20	 80.60	
    16.67000	   36.500	 65.68	 80.75	
    16.68000	   35.500	 66.13	 80.63	
    16.69000	   38.000	 65.39	 80.79	
    16.70000	   34.500	 66.59	 80.80	
    16.71000	   36.500	 65.96	 81.58	
    16.72000	   37.500	 65.53	 81.00	
    16.73000	   36.500	 66.78	 81.58	
    16.74000	   34.500	 66.45	 81.38	
    16.75000	   33.000	 66.36	 81.67	
    16.76000	   33.500	 66.04	 81.87	
    16.77000	   35.000	 65.71	 81.71	
    16.78000	   36.000	 65.97	 82.50	
    16.79000	   35.500	 65.42	 82.04	
    16.80000	   35.500	 65.42	 82.04	
    16.81000	   31.500	 66.11	 84.21	
    16.82000	   31.500	 66.11	 84.21	
    16.83000	   29.500	 66.86	 86.86	
    16.84000	   29.500	 66.86	 86.86	
    16.85000	   31.500	 66.11	 86.75	
    16.86000	   27.500	 67.73	 88.45	
    16.87000	   25.500	 64.80	 85.59	
    16.88000	   27.500	 64.09	 85.55	
    16.89000	   25.500	 64.80	 85.59	
    16.90000	   26.000	 64.62	 85.77	
    16.91000	   27.500	 64.09	 84.09	
    16.92000	   27.500	 64.09	 85.55	
    16.93000	   27.500	 64.09	 85.55	
    16.94000	   27.500	 64.09	 85.55	
    16.95000	   26.000	 64.62	 85.77	
    16.96000	   27.500	 64.09	 85.55	
    16.97000	   26.000	 60.77	 84.23	
    16.98000	   25.000	 60.00	 83.40	
    16.99000	   22.000	 56.82	 82.73	
    17.00000	   20.500	 52.32	 79.63	
    17.01000	   17.500	 53.00	 82.71	
    17.02000	   13.500	 50.93	 86.48	
    17.03000	   15.500	 51.45	 86.29	
    17.04000	    7.500	 47.67	 98.33	
    17.05000	    7.500	 47.67	 98.33	
    17.06000	    8.000	 47.50	 98.13	
    17.07000	   12.500	 48.20	 85.80	
    17.08000	   15.000	 48.00	 82.00	
    17.09000	   22.000	 50.00	 78.41	
    17.10000	   37.000	 51.35	 73.11	
    17.11000	   79.500	 60.97	 75.13	
    17.12000	  146.500	 64.76	 75.58	
    17.13000	  231.000	 65.11	 75.41	
    17.14000	  310.000	 65.27	 74.29	
    17.15000	  367.000	 65.87	 74.03	
    17.16000	  411.000	 66.14	 74.36	
    17.17000	  440.000	 66.42	 74.95	
    17.18000	  454.500	 66.67	 75.25	
    17.19000	  456.000	 66.71	 75.68	
    17.20000	  440.000	 66.59	 75.99	
    17.21000	  419.000	 66.17	 75.89	
    17.22000	  385.500	 65.92	 76.05	
    17.23000	  346.000	 65.09	 75.85	
    17.24000	  312.000	 64.76	 76.14	
    17.25000	  273.000	 64.03	 75.73	
    17.26000	  242.500	 63.41	 75.76	
    17.27000	  208.000	 62.62	 75.67	
    17.28000	  179.500	 62.47	 76.84	
    17.29000	  154.000	 61.69	 76.75	
    17.30000	  129.500	 61.41	 76.43	
    17.31000	  114.500	 60.07	 75.26	
    17.32000	   99.500	 58.02	 76.36	
    17.33000	   91.000	 56.32	 76.43	
    17.34000	   81.000	 53.77	 74.69	
    17.35000	   75.500	 53.48	 74.93	
    17.36000	   67.000	 50.37	 73.13	
    17.37000	   65.500	 50.34	 73.55	
    17.38000	   58.500	 49.44	 73.55	
    17.39000	   54.000	 49.54	 74.07	
    17.40000	   40.500	 51.05	 75.99	
    17.41000	   31.500	 49.60	 78.33	
    17.42000	   26.000	 50.00	 82.50	
    17.43000	   15.000	 51.00	 95.67	
    17.44000	   13.500	 51.67	 95.37	
    17.45000	   10.500	 49.29	 95.48	
    17.46000	    9.500	 49.74	 95.00	
    17.47000	    6.500	 51.15	 91.92	
    17.48000	    2.000	 45.00	 95.00	
    17.49000	    0.000	  0.00	  0.00	
    17.50000	    0.000	  0.00	  0.00	
    17.51000	    0.000	  0.00	  0.00	
    17.52000	    0.000	  0.00	  0.00	
    17.53000	    0.000	  0.00	  0.00	
    17.54000	    0.000	  0.00	  0.00	
    17.55000	    0.000	  0.00	  0.00	
    17.56000	    0.000	  0.00	  0.00	
    17.57000	    0.000	  0.00	  0.00	
    17.58000	    0.000	  0.00	  0.00	
    17.59000	    0.000	  0.00	  0.00	
    17.60000	    0.000	  0.00	  0.00	
    17.61000	    0.000	  0.00	  0.00	
    17.62000	    0.000	  0.00	  0.00	
    17.63000	    0.000	  0.00	  0.00	
    17.64000	    0.000	  0.00	  0.00	
    17.65000	    0.000	  0.00	  0.00	
    17.66000	    0.000	  0.00	  0.00	
    17.67000	    0.000	  0.00	  0.00	
    17.68000	    0.000	  0.00	  0.00	
    17.69000	    0.000	  0.00	  0.00	
    17.70000	    0.000	  0.00	  0.00	
    17.71000	    0.000	  0.00	  0.00	
    17.72000	    0.000	  0.00	  0.00	
    17.73000	    0.000	  0.00	  0.00	
    17.74000	    0.000	  0.00	  0.00	
    17.75000	    0.000	  0.00	  0.00	
    17.76000	    0.000	  0.00	  0.00	
    17.77000	    0.000	  0.00	  0.00	
    17.78000	    0.000	  0.00	  0.00	
    17.79000	    0.000	  0.00	  0.00	
    17.80000	    0.000	  0.00	  0.00	
    17.81000	    0.000	  0.00	  0.00	
    17.82000	    0.000	  0.00	  0.00	
    17.83000	    0.000	  0.00	  0.00	
    17.84000	    0.000	  0.00	  0.00	
    17.85000	    0.000	  0.00	  0.00	
    17.86000	    0.000	  0.00	  0.00	
    17.87000	    0.000	  0.00	  0.00	
    17.88000	    0.000	  0.00	  0.00	
    17.89000	    0.000	  0.00	  0.00	
    17.90000	    0.000	  0.00	  0.00	
    17.91000	    0.000	  0.00	  0.00	
    17.92000	    0.000	  0.00	  0.00	
    17.93000	    0.000	  0.00	  0.00	
    17.94000	    0.000	  0.00	  0.00	
    17.95000	    0.000	  0.00	  0.00	
    17.96000	    0.000	  0.00	  0.00	
    17.97000	    0.000	  0.00	  0.00	
    17.98000	    0.000	  0.00	  0.00	
    17.99000	    0.000	  0.00	  0.00	
    18.00000	    0.000	  0.00	  0.00	
    18.01000	    0.000	  0.00	  0.00	
    18.02000	    0.000	  0.00	  0.00	
    18.03000	    0.000	  0.00	  0.00	
    18.04000	    0.000	  0.00	  0.00	
    18.05000	    0.000	  0.00	  0.00	
    18.06000	    0.000	  0.00	  0.00	
    18.07000	    0.000	  0.00	  0.00	
    18.08000	    0.000	  0.00	  0.00	
    18.09000	    0.000	  0.00	  0.00	
    18.10000	    0.000	  0.00	  0.00	
    18.11000	    0.000	  0.00	  0.00	
    18.12000	    0.000	  0.00	  0.00	
    18.13000	    0.000	  0.00	  0.00	
    18.14000	    0.000	  0.00	  0.00	
    18.15000	    0.000	  0.00	  0.00	
    18.16000	    0.000	  0.00	  0.00	
    18.17000	    0.000	  0.00	  0.00	
    18.18000	    0.000	  0.00	  0.00	
    18.19000	    0.000	  0.00	  0.00	
    18.20000	    0.000	  0.00	  0.00	
    18.21000	    0.000	  0.00	  0.00	
    18.22000	    0.000	  0.00	  0.00	
    18.23000	    0.000	  0.00	  0.00	
    18.24000	    0.000	  0.00	  0.00	
    18.25000	    0.000	  0.00	  0.00	
    18.26000	    0.000	  0.00	  0.00	
    18.27000	    0.000	  0.00	  0.00	
    18.28000	    0.000	  0.00	  0.00	
    18.29000	    0.000	  0.00	  0.00	
    18.30000	    0.000	  0.00	  0.00	
    18.31000	    0.000	  0.00	  0.00	
    18.32000	    0.000	  0.00	  0.00	
    18.33000	    0.000	  0.00	  0.00	
    18.34000	    0.000	  0.00	  0.00	
    18.35000	    0.000	  0.00	  0.00	
    18.36000	    0.000	  0.00	  0.00	
    18.37000	    0.000	  0.00	  0.00	
    18.38000	    0.000	  0.00	  0.00	
    18.39000	    0.000	  0.00	  0.00	
    18.40000	    0.000	  0.00	  0.00	
    18.41000	    0.000	  0.00	  0.00	
    18.42000	    0.000	  0.00	  0.00	
    18.43000	    0.000	  0.00	  0.00	
    18.44000	    0.000	  0.00	  0.00	
    18.45000	    0.000	  0.00	  0.00	
    18.46000	    0.000	  0.00	  0.00	
    18.47000	    0.000	  0.00	  0.00	
    18.48000	    0.000	  0.00	  0.00	
    18.49000	    0.000	  0.00	  0.00	
    18.50000	    0.000	  0.00	  0.00	
    18.51000	    0.000	  0.00	  0.00	
    18.52000	    0.000	  0.00	  0.00	
    18.53000	    0.000	  0.00	  0.00	
    18.54000	    0.000	  0.00	  0.00	
